# XDI/1.0 Athena/0.9.26
# Element.edge:                  K
# Element.symbol:                Mn
# Column.1:                      energy eV
# Column.2:                      norm
# Column.3:                      nbkg
# Column.4:                      flat
# Column.5:                      fbkg
# Column.6:                      nder
# Column.7:                      nsec
# Athena.e0:                     6553.783629
# Athena.eshift:                 0
# Athena.rbkg:                   1.0
# Athena.importance:             1
# Athena.standard:               None
# Athena.bkg_kweight:            2
# Athena.edge_step:              0.3695525
# Athena.fixed_step:             no
# Athena.pre_edge_range:         -150.000 -30.000
# Athena.pre_edge_line:          -0.371072 + 8.17752e-005 * E
# Athena.normalization_range:    150.000 1390.562
# Athena.post_edge_polynomial:   1.513267 - 0.000358575 * E + 3.19233114e-008 * E^2 + 0 * E^3
# Athena.spline_range_energy:    0.000 1490.499
# Athena.clamps:                 0 24
# Athena.spline_range_k:         0.000 19.779
# Athena.kweight:                2
# Athena.window:                 hanning
# Athena.phase_correction:       no
# Athena.k_range:                1 12
# Athena.dk:                     1
# Athena.r_range:                1 2
# Athena.dr:                     0.0
# Athena.window:                 hanning
# Athena.plot_multiplier:        1
# Athena.y_offset:               0
# ///
#------------------------
#   e         norm        nbkg        flat        fbkg        nder        nsec
  6213.3900       0.52922140E-02   0.52922145E-02   0.52922144E-02   0.52922145E-02  -0.23949572E-04   0.17050953E-05
  6219.1433       0.51544254E-02   0.51544259E-02   0.51544258E-02   0.51544259E-02  -0.14139682E-04   0.40010906E-06
  6224.9062       0.51293786E-02   0.51293790E-02   0.51293790E-02   0.51293790E-02  -0.19341835E-04  -0.23943610E-05
  6230.6907       0.49310770E-02   0.49310774E-02   0.49310774E-02   0.49310774E-02  -0.41788391E-04  -0.95466431E-06
  6236.5174       0.46441682E-02   0.46441686E-02   0.46441685E-02   0.46441686E-02  -0.30426566E-04   0.32129464E-05
  6242.3711       0.45756839E-02   0.45756843E-02   0.45756842E-02   0.45756843E-02  -0.42600300E-05   0.24962782E-05
  6248.0860       0.45948852E-02   0.45948856E-02   0.45948856E-02   0.45948856E-02  -0.15478993E-05  -0.24387926E-05
  6253.7911       0.45580068E-02   0.45580072E-02   0.45580071E-02   0.45580072E-02  -0.32111147E-04  -0.32044548E-05
  6259.5186       0.42277736E-02   0.42277740E-02   0.42277740E-02   0.42277740E-02  -0.38182919E-04  -0.45563878E-08
  6265.2839       0.41191806E-02   0.41191810E-02   0.41191809E-02   0.41191810E-02  -0.32163512E-04   0.20529377E-05
  6271.2221       0.38513487E-02   0.38513491E-02   0.38513490E-02   0.38513491E-02  -0.14156411E-04   0.25600663E-05
  6277.1620       0.39510284E-02   0.39510288E-02   0.39510287E-02   0.39510288E-02  -0.17546165E-05   0.59846385E-06
  6282.9371       0.38307934E-02   0.38307937E-02   0.38307937E-02   0.38307937E-02  -0.71453899E-05  -0.22159389E-05
  6288.7330       0.38683495E-02   0.38683498E-02   0.38683498E-02   0.38683498E-02  -0.27395133E-04  -0.30111335E-05
  6294.7029       0.35084679E-02   0.35084682E-02   0.35084682E-02   0.35084682E-02  -0.42573761E-04   0.49287825E-06
  6300.6770       0.33598495E-02   0.33598498E-02   0.33598497E-02   0.33598498E-02  -0.21508207E-04   0.29097133E-05
  6306.4790       0.32551836E-02   0.32551839E-02   0.32551839E-02   0.32551839E-02  -0.83084816E-05  -0.69331499E-06
  6312.3060       0.32632295E-02   0.32632298E-02   0.32632298E-02   0.32632298E-02  -0.29570821E-04  -0.22407970E-05
  6318.3089       0.29053642E-02   0.29053645E-02   0.29053644E-02   0.29053645E-02  -0.34816853E-04   0.13421055E-05
  6324.3069       0.28453970E-02   0.28453973E-02   0.28453972E-02   0.28453973E-02  -0.13464389E-04   0.12693955E-05
  6330.1436       0.27460180E-02   0.27460182E-02   0.27460182E-02   0.27460182E-02  -0.19794009E-04  -0.14560392E-05
  6335.9918       0.26141070E-02   0.26141073E-02   0.26141072E-02   0.26141073E-02  -0.30477986E-04  -0.11829903E-05
  6342.0419       0.23833815E-02   0.23833817E-02   0.23833817E-02   0.23833817E-02  -0.33869592E-04   0.10876205E-05
  6348.1119       0.22036030E-02   0.22036032E-02   0.22036031E-02   0.22036032E-02  -0.17295878E-04   0.56763979E-06
  6354.0074       0.21764267E-02   0.21764269E-02   0.21764269E-02   0.21764269E-02  -0.27077466E-04   0.17854014E-06
  6359.9076       0.18842040E-02   0.18842042E-02   0.18842042E-02   0.18842042E-02  -0.15189863E-04   0.11588298E-05
  6365.9998       0.19942646E-02   0.19942648E-02   0.19942648E-02   0.19942648E-02  -0.13180381E-04  -0.22140397E-05
  6372.1054       0.17234334E-02   0.17234336E-02   0.17234335E-02   0.17234336E-02  -0.42196101E-04  -0.11218943E-05
  6378.2187       0.14786722E-02   0.14786723E-02   0.14786723E-02   0.14786723E-02  -0.26888763E-04   0.23330037E-05
  6384.1503       0.13995597E-02   0.13995598E-02   0.13995598E-02   0.13995598E-02  -0.14095195E-04   0.83745034E-06
  6390.1031       0.13111603E-02   0.13111605E-02   0.13111604E-02   0.13111605E-02  -0.16936233E-04  -0.65516533E-06
  6396.2500       0.11946362E-02   0.11946363E-02   0.11946363E-02   0.11946363E-02  -0.22022506E-04  -0.13283249E-05
  6402.4073       0.10401893E-02   0.10401895E-02   0.10401894E-02   0.10401895E-02  -0.33280307E-04  -0.13660076E-05
  6408.5618       0.78489568E-03   0.78489579E-03   0.78489574E-03   0.78489579E-03  -0.38840519E-04   0.60625240E-06
  6414.5569       0.56829400E-03   0.56829410E-03   0.56829405E-03   0.56829410E-03  -0.25914605E-04   0.25639268E-05
  6420.5885       0.47322873E-03   0.47322882E-03   0.47322877E-03   0.47322882E-03  -0.80049634E-05   0.76785733E-06
  6426.8142       0.47017502E-03   0.47017511E-03   0.47017506E-03   0.47017511E-03  -0.16502772E-04  -0.12673844E-05
  6433.0466       0.26763644E-03   0.26763651E-03   0.26763646E-03   0.26763651E-03  -0.23794097E-04  -0.20180306E-06
  6439.1109       0.17758582E-03   0.17758588E-03   0.17758583E-03   0.17758588E-03  -0.18984287E-04  -0.22935710E-06
  6445.2242       0.36453294E-04   0.36453349E-04   0.36453296E-04   0.36453349E-04  -0.26587117E-04   0.10522559E-06
  6451.5321      -0.15265813E-03  -0.15265809E-03  -0.15265814E-03  -0.15265809E-03  -0.17677258E-04  -0.33764061E-06
  6457.8470      -0.18668340E-03  -0.18668336E-03  -0.18668341E-03  -0.18668336E-03  -0.30849091E-04  -0.86413912E-06
  6463.9858      -0.53684262E-03  -0.53684261E-03  -0.53684266E-03  -0.53684261E-03  -0.28438964E-04   0.16835032E-05
  6470.1409      -0.53630864E-03  -0.53630863E-03  -0.53630868E-03  -0.53630863E-03  -0.10152302E-04   0.15871252E-05
  6476.4896      -0.66378568E-03  -0.66378567E-03  -0.66378573E-03  -0.66378567E-03  -0.85937582E-05   0.98081528E-06
  6482.6838      -0.64410004E-03  -0.64410004E-03  -0.64410009E-03  -0.64410004E-03   0.21500521E-05   0.86148487E-07
  6488.8609      -0.63718681E-03  -0.63718680E-03  -0.63718685E-03  -0.63718680E-03  -0.75279922E-05  -0.23902567E-06
  6495.0549      -0.73722894E-03  -0.73722894E-03  -0.73722900E-03  -0.73722894E-03  -0.80693778E-06   0.43567449E-05
  6499.8618      -0.64606383E-03  -0.64606383E-03  -0.64606388E-03  -0.64606383E-03   0.40400040E-04  -0.85911083E-06
  6501.8837      -0.46134252E-03  -0.46134250E-03  -0.46134255E-03  -0.46134250E-03  -0.66736896E-05  -0.24783415E-04
  6502.2464      -0.66197795E-03  -0.66197795E-03  -0.66197800E-03  -0.66197795E-03  -0.18698641E-04  -0.45585595E-03
  6502.5949      -0.47463989E-03  -0.47463987E-03  -0.47463993E-03  -0.47463987E-03  -0.33085155E-03  -0.60901262E-03
  6502.9149      -0.88316743E-03  -0.88316744E-03  -0.88316750E-03  -0.88316744E-03  -0.42585159E-03   0.26502846E-04
  6503.2172      -0.73968225E-03  -0.73968226E-03  -0.73968231E-03  -0.73968226E-03  -0.31435665E-03   0.89516914E-03
  6503.5303      -0.10766011E-02  -0.10766012E-02  -0.10766012E-02  -0.10766012E-02   0.12497463E-03   0.77218760E-03
  6503.8682      -0.65832789E-03  -0.65832789E-03  -0.65832794E-03  -0.65832789E-03   0.18831200E-03   0.17352794E-03
  6504.2560      -0.93993352E-03  -0.93993354E-03  -0.93993359E-03  -0.93993354E-03   0.25091271E-03   0.29888668E-03
  6504.6545      -0.46102921E-03  -0.46102919E-03  -0.46102924E-03  -0.46102919E-03   0.42333377E-03  -0.89941892E-03
  6505.0496      -0.60400082E-03  -0.60400081E-03  -0.60400086E-03  -0.60400081E-03  -0.46281308E-03  -0.20480509E-03
  6505.4375      -0.82339565E-03  -0.82339566E-03  -0.82339571E-03  -0.82339566E-03   0.26297855E-03   0.13699409E-02
  6505.8006      -0.40649709E-03  -0.40649707E-03  -0.40649712E-03  -0.40649707E-03   0.56604816E-03  -0.38524932E-03
  6506.1495      -0.42039314E-03  -0.42039312E-03  -0.42039317E-03  -0.42039312E-03  -0.11302788E-04  -0.20433442E-02
  6506.4699      -0.41406221E-03  -0.41406219E-03  -0.41406224E-03  -0.41406219E-03  -0.80159072E-03   0.34644254E-03
  6506.7761      -0.92271637E-03  -0.92271639E-03  -0.92271645E-03  -0.92271639E-03   0.20579820E-03   0.17522812E-02
  6507.0895      -0.28654944E-03  -0.28654941E-03  -0.28654946E-03  -0.28654941E-03   0.28412448E-03  -0.34791371E-03
  6507.4278      -0.73754762E-03  -0.73754763E-03  -0.73754768E-03  -0.73754763E-03  -0.20943078E-04   0.62578739E-03
  6507.8161      -0.30176638E-03  -0.30176635E-03  -0.30176641E-03  -0.30176635E-03   0.73881283E-03  -0.69297794E-03
  6508.2151      -0.15593347E-03  -0.15593343E-03  -0.15593349E-03  -0.15593343E-03  -0.56647472E-03  -0.12648376E-02
  6508.6105      -0.75180392E-03  -0.75180393E-03  -0.75180398E-03  -0.75180393E-03  -0.26604120E-03   0.17363182E-02
  6509.0025      -0.36542203E-03  -0.36542201E-03  -0.36542206E-03  -0.36542201E-03   0.80075259E-03   0.50881486E-03
  6509.3696      -0.14401830E-03  -0.14401825E-03  -0.14401831E-03  -0.14401825E-03   0.12015844E-03  -0.57550346E-03
  6509.7188      -0.27934737E-03  -0.27934734E-03  -0.27934739E-03  -0.27934734E-03   0.38849471E-03  -0.89584856E-03
  6510.0396       0.11630696E-03   0.11630702E-03   0.11630697E-03   0.11630702E-03  -0.48013803E-03  -0.12634322E-02
  6510.3462      -0.58057685E-03  -0.58057684E-03  -0.58057690E-03  -0.58057684E-03  -0.40415867E-03   0.16527551E-02
  6510.6671      -0.13728079E-03  -0.13728074E-03  -0.13728080E-03  -0.13728074E-03   0.55687655E-03   0.52257807E-03
  6511.0201      -0.20531835E-03  -0.20531831E-03  -0.20531836E-03  -0.20531831E-03  -0.52012647E-04  -0.16451022E-03
  6511.4159      -0.17622905E-03  -0.17622901E-03  -0.17622907E-03  -0.17622901E-03   0.43368751E-03   0.49724686E-03
  6511.8189       0.14112945E-03   0.14112951E-03   0.14112946E-03   0.14112951E-03   0.34520903E-03  -0.10279543E-02
  6512.2149       0.99573978E-04   0.99574038E-04   0.99573985E-04   0.99574038E-04  -0.38759146E-03  -0.92475686E-03
  6512.6073      -0.16442672E-03  -0.16442668E-03  -0.16442674E-03  -0.16442668E-03  -0.38381934E-03   0.11215863E-02
  6512.9712      -0.19072164E-03  -0.19072160E-03  -0.19072165E-03  -0.19072160E-03   0.46070242E-03  -0.32003185E-03
  6513.3209       0.16433421E-03   0.16433428E-03   0.16433422E-03   0.16433428E-03  -0.61219663E-03  -0.16025727E-02
  6513.6385      -0.59923800E-03  -0.59923800E-03  -0.59923805E-03  -0.59923800E-03  -0.60868793E-03   0.33725301E-02
  6513.9454      -0.21581697E-03  -0.21581693E-03  -0.21581698E-03  -0.21581693E-03   0.14940900E-02   0.18723351E-02
  6514.2631       0.33397960E-03   0.33397968E-03   0.33397963E-03   0.33397968E-03   0.56078379E-03  -0.32139743E-02
  6514.6129       0.15850958E-03   0.15850964E-03   0.15850959E-03   0.15850964E-03  -0.65125711E-03  -0.33821248E-03
  6515.0092      -0.15193831E-03  -0.15193827E-03  -0.15193832E-03  -0.15193827E-03   0.30843568E-03   0.10006631E-02
  6515.4056       0.40298433E-03   0.40298441E-03   0.40298436E-03   0.40298441E-03   0.14189647E-03  -0.86362995E-03
  6515.8019      -0.39453003E-04  -0.39452953E-04  -0.39453006E-04  -0.39452953E-04  -0.37618797E-03   0.39575983E-03
  6516.1912       0.10741871E-03   0.10741877E-03   0.10741872E-03   0.10741877E-03   0.45283943E-03   0.81863100E-03
  6516.5520       0.30020646E-03   0.30020653E-03   0.30020648E-03   0.30020653E-03   0.23783931E-03  -0.14841277E-02
  6516.9021       0.27648940E-03   0.27648947E-03   0.27648942E-03   0.27648947E-03  -0.60216906E-03  -0.98255860E-03
  6517.2165      -0.99931871E-04  -0.99931825E-04  -0.99931878E-04  -0.99931825E-04  -0.41506596E-03   0.22744239E-02
  6517.5238       0.18446626E-04   0.18446680E-04   0.18446627E-04   0.18446680E-04   0.81181982E-03   0.16912970E-02
  6517.8383       0.40481954E-03   0.40481962E-03   0.40481957E-03   0.40481962E-03   0.63650301E-03  -0.27939243E-03
  6518.1849       0.43925723E-03   0.43925731E-03   0.43925726E-03   0.43925731E-03   0.62710538E-03  -0.37539944E-03
  6518.5781       0.86877342E-03   0.86877354E-03   0.86877349E-03   0.86877354E-03   0.35876975E-03  -0.14112001E-02
  6518.9785       0.72395573E-03   0.72395584E-03   0.72395578E-03   0.72395584E-03  -0.49273972E-03  -0.31323104E-03
  6519.3753       0.47595244E-03   0.47595253E-03   0.47595248E-03   0.47595253E-03   0.10905633E-03   0.69572658E-03
  6519.7615       0.80934858E-03   0.80934869E-03   0.80934864E-03   0.80934869E-03   0.52025317E-04   0.68826189E-04
  6520.1262       0.51501981E-03   0.51501991E-03   0.51501985E-03   0.51501991E-03   0.16073998E-03   0.11329149E-03
  6520.4767       0.92431897E-03   0.92431909E-03   0.92431904E-03   0.92431909E-03   0.13305785E-03  -0.82033655E-03
  6520.7915       0.60353801E-03   0.60353811E-03   0.60353806E-03   0.60353811E-03  -0.38499794E-03   0.60294959E-03
  6521.0991       0.68469356E-03   0.68469366E-03   0.68469361E-03   0.68469366E-03   0.50833789E-03   0.20513146E-02
  6521.4175       0.92178193E-03   0.92178206E-03   0.92178200E-03   0.92178206E-03   0.89922344E-03  -0.34555552E-03
  6521.7610       0.12798815E-02   0.12798816E-02   0.12798816E-02   0.12798816E-02   0.27961780E-03  -0.13085435E-02
  6522.1547       0.11278910E-02   0.11278912E-02   0.11278911E-02   0.11278912E-02  -0.65317080E-04  -0.71493413E-03
  6522.5555       0.12279898E-02   0.12279900E-02   0.12279899E-02   0.12279900E-02  -0.28836662E-03  -0.46312646E-04
  6522.9492       0.89876729E-03   0.89876742E-03   0.89876736E-03   0.89876742E-03  -0.10211512E-03   0.10150299E-02
  6523.3394       0.11479399E-02   0.11479400E-02   0.11479400E-02   0.11479400E-02   0.50733463E-03   0.72051386E-03
  6523.7010       0.12801789E-02   0.12801791E-02   0.12801790E-02   0.12801791E-02   0.43956360E-03   0.10301781E-03
  6524.0483       0.14595553E-02   0.14595555E-02   0.14595554E-02   0.14595555E-02   0.58036602E-03  -0.59631684E-03
  6524.3635       0.16646401E-02   0.16646403E-02   0.16646402E-02   0.16646403E-02   0.44535892E-04  -0.33936543E-03
  6524.6679       0.14871471E-02   0.14871473E-02   0.14871473E-02   0.14871473E-02   0.37011488E-03   0.14342747E-02
  6524.9831       0.18939651E-02   0.18939653E-02   0.18939652E-02   0.18939653E-02   0.93321968E-03  -0.57369997E-03
  6525.3269       0.21022052E-02   0.21022054E-02   0.21022053E-02   0.21022054E-02  -0.79941375E-05  -0.16396158E-02
  6525.7210       0.18880658E-02   0.18880660E-02   0.18880659E-02   0.18880660E-02  -0.27674627E-03   0.18708218E-03
  6526.1187       0.18830814E-02   0.18830816E-02   0.18830815E-02   0.18830816E-02   0.14013491E-03   0.96250532E-03
  6526.5165       0.19995390E-02   0.19995392E-02   0.19995392E-02   0.19995392E-02   0.48889880E-03  -0.38007054E-03
  6526.9071       0.22685311E-02   0.22685314E-02   0.22685313E-02   0.22685314E-02  -0.15951422E-03   0.15008776E-03
  6527.2691       0.18794792E-02   0.18794794E-02   0.18794794E-02   0.18794794E-02   0.60186371E-03   0.19860832E-02
  6527.6204       0.26978519E-02   0.26978522E-02   0.26978522E-02   0.26978522E-02   0.12571967E-02  -0.68738654E-03
  6527.9395       0.27222775E-02   0.27222777E-02   0.27222777E-02   0.27222777E-02   0.14105420E-03  -0.61373616E-03
  6528.2443       0.27858473E-02   0.27858476E-02   0.27858476E-02   0.27858476E-02   0.87432288E-03   0.97296953E-03
  6528.5598       0.32646366E-02   0.32646369E-02   0.32646368E-02   0.32646369E-02   0.74460569E-03  -0.80110833E-03
  6528.9041       0.32771605E-02   0.32771608E-02   0.32771608E-02   0.32771608E-02   0.34572757E-03  -0.10682493E-02
  6529.2986       0.35200625E-02   0.35200628E-02   0.35200628E-02   0.35200628E-02  -0.44624397E-04   0.50804483E-03
  6529.7004       0.32416267E-02   0.32416270E-02   0.32416270E-02   0.32416270E-02   0.75027656E-03   0.28874445E-03
  6530.0986       0.41202642E-02   0.41202646E-02   0.41202646E-02   0.41202646E-02   0.18636365E-03  -0.90392263E-03
  6530.4897       0.33887260E-02   0.33887263E-02   0.33887262E-02   0.33887263E-02   0.36798670E-04   0.19444484E-02
  6530.8557       0.41481251E-02   0.41481255E-02   0.41481255E-02   0.41481255E-02   0.16585386E-02   0.91633924E-03
  6531.2074       0.45791122E-02   0.45791126E-02   0.45791126E-02   0.45791126E-02   0.69448466E-03  -0.16843047E-02
  6531.5269       0.46142306E-02   0.46142310E-02   0.46142310E-02   0.46142310E-02   0.52811243E-03  -0.20603106E-03
  6531.8320       0.49089506E-02   0.49089511E-02   0.49089510E-02   0.49089511E-02   0.56580570E-03   0.19308023E-02
  6532.1479       0.49656157E-02   0.49656162E-02   0.49656161E-02   0.49656162E-02   0.17272082E-02   0.23192308E-02
  6532.4926       0.60499306E-02   0.60499311E-02   0.60499310E-02   0.60499311E-02   0.20978710E-02  -0.55715123E-03
  6532.8840       0.65097935E-02   0.65097941E-02   0.65097940E-02   0.65097941E-02   0.13171065E-02  -0.14779874E-02
  6533.2862       0.70952047E-02   0.70952053E-02   0.70952053E-02   0.70952053E-02   0.92491946E-03  -0.52407366E-03
  6533.6813       0.72472374E-02   0.72472380E-02   0.72472379E-02   0.72472380E-02   0.89925941E-03   0.87989761E-03
  6534.0728       0.78025909E-02   0.78025916E-02   0.78025915E-02   0.78025916E-02   0.16170751E-02   0.19481940E-02
  6534.4357       0.84671540E-02   0.84671547E-02   0.84671546E-02   0.84671547E-02   0.23689711E-02   0.27378185E-02
  6534.7878       0.94963247E-02   0.94963255E-02   0.94963255E-02   0.94963255E-02   0.35745222E-02   0.25588500E-02
  6535.1076       0.10868968E-01   0.10868969E-01   0.10868969E-01   0.10868969E-01   0.40883289E-02   0.45285150E-02
  6535.4131       0.12052679E-01   0.12052680E-01   0.12052680E-01   0.12052680E-01   0.64061166E-02   0.89338835E-02
  6535.7294       0.14851971E-01   0.14851973E-01   0.14851973E-01   0.14851973E-01   0.96429710E-02   0.90232880E-02
  6536.0744       0.18430087E-01   0.18430088E-01   0.18430088E-01   0.18430088E-01   0.12373695E-01   0.10002649E-01
  6536.4663       0.23970370E-01   0.23970372E-01   0.23970372E-01   0.23970372E-01   0.17014103E-01   0.12171421E-01
  6536.8690       0.31948268E-01   0.31948271E-01   0.31948271E-01   0.31948271E-01   0.22044230E-01   0.93820659E-02
  6537.2681       0.41645897E-01   0.41645900E-01   0.41645900E-01   0.41645900E-01   0.24536841E-01   0.23852275E-02
  6537.6601       0.51360222E-01   0.51360226E-01   0.51360226E-01   0.51360226E-01   0.23931267E-01  -0.83828652E-02
  6538.0270       0.59806474E-01   0.59806479E-01   0.59806479E-01   0.59806479E-01   0.18175386E-01  -0.17761214E-01
  6538.3795       0.64435394E-01   0.64435399E-01   0.64435399E-01   0.64435399E-01   0.11154045E-01  -0.10156134E-01
  6538.6997       0.67309823E-01   0.67309828E-01   0.67309828E-01   0.67309828E-01   0.11343334E-01   0.63591091E-02
  6539.0055       0.71536344E-01   0.71536350E-01   0.71536350E-01   0.71536350E-01   0.15134860E-01   0.43926942E-02
  6539.3221       0.76730804E-01   0.76730810E-01   0.76730810E-01   0.76730810E-01   0.14077650E-01  -0.13566909E-01
  6539.6640       0.80806745E-01   0.80806751E-01   0.80806751E-01   0.80806751E-01   0.62007927E-02  -0.23093464E-01
  6540.0599       0.81305550E-01   0.81305557E-01   0.81305557E-01   0.81305557E-01  -0.29599687E-02  -0.16782839E-01
  6540.4631       0.78441596E-01   0.78441602E-01   0.78441602E-01   0.78441602E-01  -0.72094507E-02  -0.59197325E-02
  6540.8627       0.75518178E-01   0.75518184E-01   0.75518184E-01   0.75518184E-01  -0.77120221E-02  -0.19720845E-03
  6541.2551       0.72333297E-01   0.72333303E-01   0.72333303E-01   0.72333303E-01  -0.73656495E-02   0.50736496E-02
  6541.6224       0.69922200E-01   0.69922205E-01   0.69922205E-01   0.69922205E-01  -0.38573676E-02   0.11544370E-01
  6541.9753       0.69555148E-01   0.69555153E-01   0.69555153E-01   0.69555153E-01   0.94882534E-03   0.10658016E-01
  6542.2959       0.70561215E-01   0.70561220E-01   0.70561220E-01   0.70561220E-01   0.33205933E-02   0.84432112E-02
  6542.6021       0.71636253E-01   0.71636259E-01   0.71636259E-01   0.71636259E-01   0.62404137E-02   0.11815988E-01
  6542.9191       0.74450166E-01   0.74450171E-01   0.74450171E-01   0.74450171E-01   0.10684175E-01   0.10520650E-01
  6543.2613       0.78680106E-01   0.78680112E-01   0.78680112E-01   0.78680112E-01   0.13176457E-01   0.90228338E-02
  6543.6541       0.84135099E-01   0.84135105E-01   0.84135105E-01   0.84135105E-01   0.17316121E-01   0.12972385E-01
  6544.0577       0.92470058E-01   0.92470065E-01   0.92470065E-01   0.92470065E-01   0.23507211E-01   0.15659856E-01
  6544.4542       0.10294251       0.10294252       0.10294252       0.10294252       0.29845102E-01   0.19493906E-01
  6544.8471       0.11602856       0.11602857       0.11602857       0.11602857       0.38894901E-01   0.27366532E-01
  6545.2148       0.13252664       0.13252665       0.13252665       0.13252665       0.50660551E-01   0.33255423E-01
  6545.5681       0.15255735       0.15255736       0.15255736       0.15255736       0.62873723E-01   0.40039788E-01
  6545.8890       0.17491962       0.17491963       0.17491963       0.17491963       0.77657618E-01   0.40534003E-01
  6546.1956       0.20128362       0.20128364       0.20128364       0.20128364       0.88306784E-01   0.26750133E-01
  6546.5129       0.23001493       0.23001495       0.23001495       0.23001495       0.94347240E-01   0.72810241E-02
  6546.8520       0.26321626       0.26321628       0.26321628       0.26321628       0.93086288E-01  -0.46867417E-02
  6547.2452       0.29817820       0.29817822       0.29817822       0.29817822       0.90915331E-01   0.25146403E-02
  6547.6457       0.33537349       0.33537351       0.33537351       0.33537351       0.95082095E-01   0.91341381E-02
  6548.0462       0.37433820       0.37433823       0.37433823       0.37433823       0.98231703E-01   0.84328961E-02
  6548.4395       0.41335738       0.41335741       0.41335741       0.41335741       0.10177678       0.10652738E-01
  6548.8113       0.45220802       0.45220805       0.45220805       0.45220805       0.10638216       0.17125583E-01
  6549.1650       0.49053678       0.49053682       0.49053682       0.49053682       0.11420125       0.21925807E-01
  6549.4863       0.52929786       0.52929790       0.52929790       0.52929790       0.12118284       0.10098915E-01
  6549.7968       0.56709828       0.56709832       0.56709832       0.56709832       0.12058159      -0.10445809E-01
  6550.1146       0.60505192       0.60505197       0.60505197       0.60505197       0.11462038      -0.26661789E-01
  6550.4576       0.64283977       0.64283982       0.64283982       0.64283982       0.10296340      -0.25250409E-01
  6550.8513       0.68090681       0.68090686       0.68090686       0.68090686       0.96017973E-01  -0.56562503E-02
  6551.2558       0.71948189       0.71948195       0.71948195       0.71948195       0.98448551E-01   0.58312345E-02
  6551.6532       0.75985458       0.75985463       0.75985463       0.75985463       0.10069415       0.76150628E-02
  6552.0506       0.79951320       0.79951326       0.79951326       0.79951326       0.10450097       0.16024507E-01
  6552.4192       0.83990117       0.83990124       0.83990124       0.83990124       0.11296875       0.23404045E-01
  6552.7734       0.88115786       0.88115793       0.88115793       0.88115793       0.12141552       0.28677792E-01
  6553.0986       0.92239464       0.92239471       0.92239471       0.92239471       0.13245333       0.25988132E-01
  6553.4059       0.96493671       0.96493678       0.96493678       0.96493678       0.13785343       0.43687356E-02
  6553.7204        1.0081031        1.0081032        1.0080993        1.0080993       0.13516953      -0.18669734E-01
  6554.0638        1.0538718        2.8200989        1.0538884        2.8201154       0.12556964      -0.24432250E-01
  6554.4543        1.1002653        2.6776476        1.1003050        2.6776872       0.11723740      -0.14936771E-01
  6554.8593        1.1471356        2.5379622        1.1471993        2.5380258       0.11368725      -0.11289448E-01
  6555.2572        1.1915386        2.4085184        1.1916258        2.4086055       0.10817372      -0.12808191E-01
  6555.6550        1.2332111        2.2865290        1.2333218        2.2866396       0.10349558      -0.12417363E-01
  6556.0240        1.2709068        2.1798792        1.2710392        2.1800115       0.98651151E-01  -0.17580046E-01
  6556.3822        1.3049475        2.0821465        1.3051010        2.0822999       0.90711858E-01  -0.24443575E-01
  6556.7079        1.3329387        1.9981019        1.3331113        1.9982745       0.81935803E-01  -0.30182337E-01
  6557.0191        1.3571297        1.9219509        1.3573206        1.9221418       0.71489724E-01  -0.42996449E-01
  6557.3376        1.3779554        1.8481235        1.3781650        1.8483331       0.54861154E-01  -0.53461184E-01
  6557.6778        1.3932675        1.7737096        1.3934971        1.7739391       0.36274093E-01  -0.43075847E-01
  6558.0688        1.4044784        1.6937070        1.4047309        1.6939594       0.23364784E-01  -0.31293288E-01
  6558.4742        1.4118760        1.6167318        1.4121522        1.6170079       0.11351055E-01  -0.30463263E-01
  6558.8761        1.4136432        1.5462327        1.4139430        1.5465323      -0.12311630E-02  -0.26809021E-01
  6559.2709        1.4108952        1.4823901        1.4112180        1.4827128      -0.10006030E-01  -0.27217068E-01
  6559.6439        1.4059610        1.4267694        1.4063055        1.4271139      -0.22127421E-01  -0.36684078E-01
  6560.0025        1.3947060        1.3774460        1.3950714        1.3778113      -0.36845422E-01  -0.41156980E-01
  6560.3322        1.3806021        1.3355437        1.3809867        1.3359282      -0.50453753E-01  -0.38754757E-01
  6560.6401        1.3625364        1.2992615        1.3629389        1.2996639      -0.61555688E-01  -0.25123621E-01
  6560.9590        1.3420188        1.2644940        1.3424399        1.2649149      -0.66201289E-01  -0.60763422E-02
  6561.2996        1.3188781        1.2303689        1.3193189        1.2308096      -0.65562902E-01   0.62775024E-02
  6561.6946        1.2937870        1.1945145        1.2942507        1.1949781      -0.61583201E-01   0.63201397E-02
  6562.0970        1.2697741        1.1618885        1.2702611        1.1623753      -0.60523481E-01   0.15367800E-02
  6562.4993        1.2450832        1.1329550        1.2455935        1.1334651      -0.60346540E-01   0.11782399E-02
  6562.8945        1.2216441        1.1079128        1.2221772        1.1084458      -0.59583763E-01   0.49559779E-02
  6563.2680        1.1992839        1.0871195        1.1998385        1.0876741      -0.56537103E-01   0.70510196E-02
  6563.6234        1.1804365        1.0697531        1.1810116        1.0703281      -0.54444564E-01   0.17722364E-02
  6563.9498        1.1621639        1.0557421        1.1627577        1.0563359      -0.55328801E-01   0.10040236E-01
  6564.2581        1.1453183        1.0440986        1.1459299        1.0447101      -0.48071845E-01   0.28392202E-01
  6564.5773        1.1319974        1.0335576        1.1326273        1.0341875      -0.37511871E-01   0.29411786E-01
  6564.9147        1.1206875        1.0239648        1.1213368        1.0246140      -0.28759655E-01   0.23234692E-01
  6565.3066        1.1110244        1.0146425        1.1116962        1.0153142      -0.20567949E-01   0.15698730E-01
  6565.7130        1.1042685        1.0068204        1.1049636        1.0075154      -0.16227657E-01   0.11078484E-01
  6566.1122        1.0979507        1.0007390        1.0986686        1.0014568      -0.11642679E-01   0.12859626E-01
  6566.5115        1.0949720       0.99601671        1.0957127       0.99675733      -0.59594382E-02   0.12342696E-01
  6566.8817        1.0933647       0.99265511        1.0941265       0.99341686      -0.21444314E-02   0.10107188E-01
  6567.2412        1.0934072       0.99015304        1.0941895       0.99093528       0.14158074E-02   0.13502538E-01
  6567.5716        1.0943414       0.98837085        1.0951425       0.98917191       0.71702405E-02   0.17930553E-01
  6567.8803        1.0979896       0.98703732        1.0988083       0.98785593       0.12874937E-01   0.11366591E-01
  6568.1962        1.1023834       0.98589185        1.1032200       0.98672842       0.14270086E-01   0.23769316E-02
  6568.5376        1.1073704       0.98477566        1.1082264       0.98563162       0.14437473E-01   0.13128730E-02
  6568.9263        1.1129241       0.98354879        1.1138022       0.98442679       0.15228610E-01   0.34808353E-02
  6569.3332        1.1194859       0.98230294        1.1203870       0.98320399       0.17206731E-01   0.41247874E-02
  6569.7365        1.1268651       0.98110650        1.1277890       0.98203036       0.18570537E-01   0.25340711E-03
  6570.1362        1.1343988       0.97995804        1.1353454       0.98090449       0.17410228E-01  -0.95869872E-03
  6570.5106        1.1403419       0.97891588        1.1413095       0.97988346       0.17828436E-01  -0.97680630E-03
  6570.8704        1.1474882       0.97794417        1.1484761       0.97893203       0.16693073E-01  -0.72250057E-02
  6571.2012        1.1518709       0.97707664        1.1528775       0.97808314       0.12838508E-01  -0.10576025E-01
  6571.5103        1.1557026       0.97628832        1.1567265       0.97731220       0.99262672E-02  -0.14499786E-01
  6571.8302        1.1581143       0.97549435        1.1591563       0.97653622       0.37183743E-02  -0.14178906E-01
  6572.1684        1.1581498       0.97467959        1.1592107       0.97574044       0.59457593E-03  -0.49347468E-02
  6572.5539        1.1585446       0.97378110        1.1596272       0.97486357       0.14724119E-03  -0.65909423E-02
  6572.9613        1.1582665       0.97286629        1.1593719       0.97397158      -0.46311186E-02  -0.11824952E-01
  6573.3614        1.1548049       0.97200195        1.1559327       0.97312964      -0.94015022E-02  -0.92171720E-02
  6573.7616        1.1507422       0.97117105        1.1518923       0.97232110      -0.12007953E-01  -0.77106333E-02
  6574.1327        1.1455429       0.97043011        1.1467137       0.97160087      -0.15348937E-01  -0.11379726E-01
  6574.4966        1.1394602       0.96973096        1.1406513       0.97092201      -0.20372450E-01  -0.13976773E-01
  6574.8242        1.1314564       0.96912457        1.1326658       0.97033385      -0.25013121E-01  -0.10325904E-01
  6575.1336        1.1235286       0.96857151        1.1247552       0.96979801      -0.26949297E-01  -0.71765334E-02
  6575.4502        1.1145842       0.96802503        1.1158284       0.96926913      -0.29506155E-01  -0.25992745E-02
  6575.7888        1.1041944       0.96746254        1.1054574       0.96872544      -0.28652498E-01   0.28252599E-02
  6576.1748        1.0938252       0.96684844        1.0951096       0.96813274      -0.27459231E-01  -0.13901662E-02
  6576.5862        1.0822979       0.96622509        1.0836051       0.96753219      -0.29761043E-01  -0.52967798E-02
  6576.9868        1.0696567       0.96564893        1.0709861       0.96697819      -0.31760667E-01  -0.18944179E-02
  6577.3839        1.0569649       0.96510741        1.0583162       0.96645860      -0.31272071E-01  -0.21688404E-02
  6577.7591        1.0455077       0.96462225        1.0468797       0.96599415      -0.33435493E-01  -0.72506750E-02
  6578.1234        1.0322384       0.96417558        1.0336305       0.96556756      -0.36634155E-01  -0.44313878E-02
  6578.4550        1.0200144       0.96378972        1.0214247       0.96519996      -0.36519256E-01  -0.20141118E-02
  6578.7647        1.0088183       0.96344682        1.0102456       0.96487410      -0.37925823E-01   0.52284595E-03
  6579.0818       0.99624250       0.96311318       0.99768728       0.96455789      -0.36191536E-01   0.89002832E-02
  6579.4171       0.98520784       0.96277923       0.98667102       0.96424234      -0.32119501E-01   0.11339138E-01
  6579.8071       0.97294468       0.96241489       0.97442926       0.96389939      -0.27966715E-01   0.79484545E-02
  6580.2154       0.96288083       0.96206087       0.96438776       0.96356773      -0.25773916E-01   0.15620781E-02
  6580.6201       0.95198979       0.96173720       0.95351886       0.96326619      -0.26696704E-01  -0.77388180E-03
  6581.0212       0.94136759       0.96144272       0.94291857       0.96299363      -0.26397540E-01   0.13500792E-02
  6581.4005       0.93138884       0.96118800       0.93296051       0.96275960      -0.25643086E-01  -0.19799167E-03
  6581.7653       0.92228821       0.96096448       0.92387975       0.96255595      -0.26544853E-01  -0.16839737E-02
  6582.0972       0.91289501       0.96077904       0.91450463       0.96238859      -0.26816312E-01   0.11831632E-02
  6582.4073       0.90507069       0.96062109       0.90669717       0.96224750      -0.25785198E-01   0.46676633E-02
  6582.7248       0.89671410       0.96047448       0.89835782       0.96211813      -0.23887227E-01   0.88684183E-02
  6583.0605       0.88946913       0.96033580       0.89113107       0.96199767      -0.19992933E-01   0.99165782E-02
  6583.4437       0.88234132       0.96019777       0.88402403       0.96188041      -0.16758268E-01   0.61911939E-02
  6583.8524       0.87619708       0.96007395       0.87790192       0.96177872      -0.15089693E-01   0.32739478E-02
  6584.2540       0.87011386       0.95997544       0.87184041       0.96170192      -0.14105326E-01   0.33344666E-02
  6584.6556       0.86486876       0.95989943       0.86661699       0.96164759      -0.12411703E-01   0.14111202E-02
  6585.0353       0.86041637       0.95984788       0.86218508       0.96161652      -0.13002793E-01   0.17609897E-03
  6585.3968       0.85523049       0.95981683       0.85701867       0.96160495      -0.12281170E-01   0.25782345E-02
  6585.7292       0.85189501       0.95980354       0.85370107       0.96160954      -0.11213869E-01   0.20544375E-02
  6586.0433       0.84798127       0.95980419       0.84980422       0.96162708      -0.10953077E-01   0.41049124E-02
  6586.3611       0.84497368       0.95981771       0.84681370       0.96165766      -0.86199463E-02   0.66372098E-02
  6586.6935       0.84237625       0.95984547       0.84423410       0.96170325      -0.66373107E-02   0.43799307E-02
  6587.0771       0.84022089       0.95989451       0.84209928       0.96177284      -0.54835962E-02   0.34147108E-02
  6587.4864       0.83802838       0.95996651       0.83992867       0.96186675      -0.39298274E-02   0.28585573E-02
  6587.8920       0.83701841       0.96005753       0.83894039       0.96197943      -0.31541179E-02   0.15112060E-02
  6588.2941       0.83548076       0.96016660       0.83742419       0.96210996      -0.27092112E-02   0.33238693E-02
  6588.6743       0.83489921       0.96028664       0.83686290       0.96225027      -0.55411080E-03   0.53253935E-02
  6589.0399       0.83506753       0.96041723       0.83705069       0.96240032       0.12622649E-02   0.13044639E-02
  6589.3762       0.83578528       0.96055025       0.83778633       0.96255123       0.36159024E-03  -0.18825753E-02
  6589.6871       0.83530155       0.96068390       0.83731911       0.96270139       0.43856541E-04   0.71870430E-03
  6590.0052       0.83581287       0.96083117       0.83784731       0.96286555       0.81364446E-03   0.61158880E-03
  6590.3381       0.83583123       0.96099636       0.83788331       0.96304837       0.44199657E-03   0.91091700E-03
  6590.7258       0.83613136       0.96120281       0.83820397       0.96327536       0.14700166E-02   0.73454812E-03
  6591.1355       0.83700352       0.96143699       0.83909780       0.96353120       0.10277752E-02  -0.11244686E-02
  6591.5417       0.83696988       0.96168490       0.83908560       0.96380056       0.55260545E-03   0.26896268E-02
  6591.9442       0.83745038       0.96194572       0.83958734       0.96408261       0.32027392E-02   0.38176125E-02
  6592.6823       0.84062295       0.96246164       0.84279876       0.96463738       0.49070125E-02   0.16853602E-02
  6594.0279       0.84767506       0.96352019       0.84992146       0.96576652       0.67145025E-02   0.87587974E-03
  6596.1249       0.86373856       0.96544138       0.86609435       0.96779710       0.79223502E-02   0.36567491E-03
  6598.0476       0.87952072       0.96744915       0.88197612       0.96990449       0.81844143E-02   0.41881226E-03
  6599.9673       0.89518621       0.96964202       0.89774045       0.97219619       0.95315869E-02   0.83917876E-03
  6601.7083       0.91441294       0.97175530       0.91705626       0.97439856       0.11256391E-01   0.83548775E-03
  6603.6317       0.93643413       0.97418566       0.93917526       0.97692672       0.12593148E-01   0.67725508E-03
  6605.3688       0.96051077       0.97643021       0.96333969       0.97925905       0.13735516E-01   0.37080064E-03
  6607.4634       0.98906462       0.97914971       0.99199869       0.98208371       0.14013948E-01  -0.18252267E-03
  6609.2233        1.0145274       0.98140527        1.0175493       0.98442703       0.13031984E-01  -0.94532362E-03
  6611.1413        1.0369953       0.98378920        1.0401122       0.98690601       0.10537116E-01  -0.14185262E-02
  6613.1072        1.0554525       0.98610641        1.0586662       0.98931997       0.75225718E-02  -0.17010664E-02
  6614.9993        1.0660169       0.98818658        1.0693231       0.99149264       0.39745036E-02  -0.18611650E-02
  6616.7840        1.0700659       0.99001471        1.0734587       0.99340744       0.67948122E-03  -0.15105140E-02
  6618.8502        1.0686336       0.99197345        1.0721261       0.99546584      -0.18424540E-02  -0.12204318E-02
  6620.6750        1.0628969       0.99356677        1.0664767       0.99714657      -0.40692358E-02  -0.98854114E-03
  6622.5513        1.0535730       0.99507584        1.0572421       0.99874491      -0.55011406E-02  -0.47576799E-03
  6624.3767        1.0425333       0.99642207        1.0462887        1.0001774      -0.58303853E-02   0.68196133E-04
  6626.2469        1.0320264       0.99768081        1.0358695        1.0015239      -0.52491167E-02   0.45986701E-03
  6628.2747        1.0220723       0.99891249        1.0260100        1.0028501      -0.40378319E-02   0.80120362E-03
  6630.1210        1.0163833       0.99991784        1.0204064        1.0039409      -0.21451602E-02   0.10399650E-02
  6631.9862        1.0141105        1.0008253        1.0182193        1.0049340      -0.17795398E-03   0.84954408E-03
  6634.0046        1.0156922        1.0016895        1.0198931        1.0058903       0.11541020E-02   0.46633232E-03
  6635.8938        1.0186202        1.0023920        1.0229066        1.0066783       0.16442722E-02   0.89032451E-04
  6637.7086        1.0217827        1.0029740        1.0261507        1.0073419       0.14838825E-02  -0.21626885E-03
  6639.7969        1.0244120        1.0035361        1.0288731        1.0079972       0.80015044E-03  -0.43353277E-03
  6641.5920        1.0248900        1.0039315        1.0294306        1.0084720      -0.19968001E-03  -0.56010083E-03
  6643.5161        1.0236693        1.0042695        1.0282946        1.0088947      -0.12829452E-02  -0.51017638E-03
  6645.3058        1.0201253        1.0045082        1.0248287        1.0092114      -0.20943776E-02  -0.24579593E-03
  6647.2224        1.0159068        1.0046870        1.0206931        1.0094733      -0.21939590E-02   0.11511826E-04
  6649.2021        1.0115770        1.0047930        1.0164485        1.0096643      -0.20495242E-02   0.11819187E-03
  6651.1386        1.0078805        1.0048239        1.0128345        1.0097778      -0.17310992E-02   0.22249548E-03
  6652.9246        1.0051330        1.0047926        1.0101627        1.0098222      -0.12212866E-02   0.20119463E-03
  6655.0492        1.0031046        1.0046859        1.0082234        1.0098047      -0.94431554E-03   0.18559295E-03
  6656.8081        1.0014658        1.0045445        1.0066579        1.0097365      -0.50053602E-03   0.16877115E-03
  6658.7661        1.0012441        1.0043349        1.0065171        1.0096078      -0.31700972E-03  -0.97632883E-04
  6660.5308        1.0002857        1.0041028        1.0056310        1.0094481      -0.86399424E-03  -0.34077662E-03
  6662.4918       0.99802509        1.0038013        1.0034502        1.0092263      -0.15866579E-02  -0.36272932E-03
  6664.4559       0.99405779        1.0034578       0.99956217        1.0089621      -0.22877601E-02  -0.38712632E-03
  6666.5951       0.98863772        1.0030421       0.99422766        1.0086319      -0.31751533E-02  -0.35492981E-03
  6668.5594       0.98102867        1.0026274       0.98669646        1.0082951      -0.37442011E-02  -0.16575996E-03
  6671.0233       0.97205778        1.0020700       0.97782228        1.0078345      -0.39091659E-02  -0.57758113E-04
  6673.6713       0.96104539        1.0014351       0.96691267        1.0073023      -0.40394551E-02   0.86924547E-04
  6676.2388       0.95098980        1.0007947       0.95695558        1.0067604      -0.34558067E-02   0.38568536E-03
  6678.8708       0.94307702        1.0001244       0.94914258        1.0061899      -0.20340948E-02   0.63624027E-03
  6681.5425       0.94020158       0.99944129       0.94636721        1.0056068      -0.81380396E-04   0.73917588E-03
  6684.1380       0.94264837       0.99878656       0.94891003        1.0050481       0.18592754E-02   0.65265402E-03
  6686.7522       0.94988775       0.99814723       0.95624495        1.0045044       0.33187167E-02   0.45580202E-03
  6689.4295       0.96020944       0.99752146       0.96666328        1.0039752       0.42711632E-02   0.24822284E-03
  6692.0572       0.97254643       0.99693597       0.97909391        1.0034834       0.46355482E-02   0.31272235E-04
  6694.6715       0.98450894       0.99638091       0.99114839        1.0030203       0.44350919E-02  -0.12789138E-03
  6697.3781       0.99614507       0.99583419        1.0028785        1.0025675       0.39550520E-02  -0.25772958E-03
  6700.0416        1.0057482       0.99532313        1.0125728        1.0021477       0.30510459E-02  -0.32637991E-03
  6702.6245        1.0121521       0.99485228        1.0190641        1.0017642       0.22427344E-02  -0.28465886E-03
  6705.2756        1.0174866       0.99439350        1.0244870        1.0013938       0.15611494E-02  -0.25061625E-03
  6707.9511        1.0204677       0.99395486        1.0275561        1.0010432       0.90780440E-03  -0.20630923E-03
  6710.5371        1.0222630       0.99355335        1.0294353        1.0007256       0.47564511E-03  -0.12883795E-03
  6713.1644        1.0229473       0.99316726        1.0302037        1.0004235       0.23613918E-03  -0.47906037E-04
  6715.8497        1.0235175       0.99279451        1.0308585        1.0001354       0.22113955E-03  -0.18859648E-04
  6718.4601        1.0241184       0.99245259        1.0315405       0.99987463       0.13626337E-03  -0.43581408E-04
  6721.0595        1.0242274       0.99213132        1.0317291       0.99963295      -0.59106488E-05  -0.74098633E-04
  6723.7406        1.0240872       0.99181921        1.0316698       0.99940172      -0.25501610E-03  -0.14456159E-03
  6726.3847        1.0228694       0.99152976        1.0305306       0.99919081      -0.77572470E-03  -0.24491817E-03
  6728.9736        1.0200278       0.99126319        1.0277647       0.99899997      -0.15366734E-02  -0.28844631E-03
  6731.8264        1.0145073       0.99098785        1.0223263       0.99880675      -0.23453630E-02  -0.21465623E-03
  6734.6958        1.0066073       0.99072936        1.0145075       0.99862942      -0.27649677E-02  -0.64243083E-04
  6737.1042       0.99991443       0.99052592        1.0078816       0.99849302      -0.26844236E-02   0.10213561E-03
  6739.7609       0.99301033       0.99031504        1.0010503       0.99835492      -0.22476356E-02   0.18599601E-03
  6742.6348       0.98748361       0.99010198       0.99560092       0.99821921      -0.16557503E-02   0.19769925E-03
  6745.2681       0.98389180       0.98991962       0.99207874       0.99810648      -0.11588687E-02   0.20282311E-03
  6747.8937       0.98138922       0.98974922       0.98964439       0.99800432      -0.58912042E-03   0.22051405E-03
  6750.5874       0.98075811       0.98958543       0.98908204       0.99790929       0.14105314E-04   0.19395088E-03
  6753.2525       0.98146481       0.98943352       0.98985554       0.99782418       0.45022473E-03   0.10159898E-03
  6755.8676       0.98313537       0.98929347       0.99159046       0.99774848       0.55056572E-03   0.61322779E-05
  6758.5684       0.98439158       0.98915734       0.99291190       0.99767758       0.48282356E-03  -0.31481576E-04
  6761.2650       0.98574139       0.98902920       0.99432556       0.99761330       0.38064584E-03  -0.70184580E-04
  6763.8821       0.98641421       0.98891145       0.99505917       0.99755634       0.10988558E-03  -0.10255833E-03
  6766.5699       0.98632431       0.98879647       0.99503046       0.99750254      -0.16341194E-03  -0.93960173E-04
  6769.4747       0.98550032       0.98867799       0.99427120       0.99744879      -0.41559279E-03  -0.77877484E-04
  6772.1349       0.98401154       0.98857386       0.99284041       0.99740266      -0.59679991E-03  -0.37902866E-04
  6774.8040       0.98231980       0.98847274       0.99120563       0.99735850      -0.61758834E-03   0.21828264E-04
  6778.0897       0.98033388       0.98835161       0.98928815       0.99730581      -0.46681537E-03   0.72257258E-04
  6781.5607       0.97916567       0.98822607       0.98819020       0.99725053      -0.12936816E-03   0.82380978E-04
  6785.0375       0.97943506       0.98810097       0.98852789       0.99719373       0.10555044E-03   0.53966760E-04
  6788.3423       0.97988147       0.98798100       0.98903729       0.99713674       0.23661411E-03   0.39800505E-04
  6791.6284       0.98099455       0.98785918       0.99021112       0.99707568       0.36787036E-03   0.26227094E-04
  6794.9426       0.98230953       0.98773344       0.99158548       0.99700932       0.40972080E-03  -0.25233519E-04
  6798.2596       0.98371148       0.98760495       0.99304497       0.99693836       0.20054255E-03  -0.49418375E-04
  6801.7600       0.98367670       0.98746681       0.99306884       0.99685887       0.72816957E-04  -0.17170502E-04
  6805.2551       0.98422087       0.98732657       0.99366947       0.99677509       0.80426355E-04  -0.51822411E-05
  6808.5761       0.98422490       0.98719149       0.99372518       0.99669170       0.37494019E-04   0.11609173E-04
  6811.8867       0.98446952       0.98705535       0.99401943       0.99660518       0.15741391E-03   0.32144074E-04
  6815.3878       0.98529716       0.98691004       0.99489749       0.99651030       0.25645003E-03   0.19310771E-05
  6818.6913       0.98621457       0.98677199       0.99586055       0.99641789       0.17055426E-03  -0.19841612E-04
  6822.0179       0.98642793       0.98663233       0.99611795       0.99632227       0.12489985E-03  -0.96373632E-05
  6825.5334       0.98706915       0.98648432       0.99680364       0.99621874       0.10461454E-03  -0.35929216E-05
  6828.8587       0.98714359       0.98634424       0.99691818       0.99611876       0.10032114E-03  -0.31018913E-06
  6832.2073       0.98773869       0.98620338       0.99755173       0.99601635       0.10254437E-03   0.14140329E-04
  6835.7480       0.98785004       0.98605498       0.99770164       0.99590650       0.19773718E-03   0.21086586E-04
  6839.0959       0.98910081       0.98591546       0.99898687       0.99580144       0.24780066E-03  -0.21338650E-04
  6842.4353       0.98950717       0.98577736       0.99942567       0.99569579       0.55037991E-04  -0.29218938E-04
  6845.9857       0.98948001       0.98563204       0.99943089       0.99558284       0.46488320E-04  -0.81692194E-05
  6849.3375       0.98982804       0.98549655       0.99980749       0.99547592      -0.13473668E-05  -0.27267203E-04
  6852.7284       0.98947093       0.98536146       0.99947731       0.99536776      -0.13736706E-03  -0.18091899E-04
  6856.3209       0.98886875       0.98522085       0.99890149       0.99525352      -0.12769062E-03   0.20361531E-04
  6859.7255       0.98857746       0.98509029       0.99863313       0.99514588       0.51048910E-05   0.31854653E-04
  6863.1133       0.98890343       0.98496329       0.99897992       0.99503970       0.88677555E-04   0.13507063E-04
  6866.5143       0.98917947       0.98483900       0.99927487       0.99493432       0.96800684E-04   0.19240635E-05
  6869.9068       0.98956105       0.98471852       0.99967332       0.99483072       0.10174884E-03  -0.35363588E-07
  6873.5120       0.98989147       0.98459466        1.0000195       0.99472262       0.96553221E-04  -0.27576278E-04
  6876.9209       0.99023828       0.98448181        1.0003791       0.99462259      -0.91673385E-04  -0.62845093E-04
  6880.3462       0.98926496       0.98437291       0.99941668       0.99452456      -0.33294592E-03  -0.30585716E-04
  6883.9690       0.98789164       0.98426296       0.99805266       0.99442390      -0.30724454E-03   0.17015998E-05
  6887.4102       0.98709457       0.98416382       0.99726231       0.99433148      -0.32092578E-03  -0.25513335E-04
  6890.8179       0.98569366       0.98407105       0.99586604       0.99424336      -0.48198213E-03  -0.19639022E-04
  6894.2257       0.98380962       0.98398396       0.99398464       0.99415890      -0.45477554E-03   0.21075795E-04
  6897.6582       0.98258285       0.98390228       0.99275849       0.99407784      -0.33781686E-03   0.13141102E-04
  6901.2952       0.98142144       0.98382269       0.99159553       0.99399670      -0.36187510E-03  -0.24907327E-04
  6904.7280       0.98002448       0.98375446       0.99019500       0.99392490      -0.51390566E-03  -0.27216530E-04
  6908.1788       0.97788391       0.98369294       0.98804879       0.99385774      -0.54922321E-03   0.20246965E-04
  6911.8341       0.97612163       0.98363584       0.98627830       0.99379243      -0.37002806E-03   0.40772785E-04
  6915.8714       0.97503742       0.98358285       0.98518233       0.99372769      -0.23557257E-03   0.34010061E-04
  6920.1446       0.97416391       0.98353885       0.98429331       0.99366817      -0.87388462E-04   0.37962065E-04
  6924.2123       0.97430853       0.98350899       0.98442023       0.99362062       0.81061574E-04   0.36098385E-04
  6928.2801       0.97482339       0.98349097       0.98491454       0.99358204       0.20628894E-03   0.36067069E-04
  6932.3695       0.97599128       0.98348454       0.98605888       0.99355207       0.37527011E-03   0.35191049E-04
  6936.4669       0.97789566       0.98348963       0.98793677       0.99353067       0.49439179E-03   0.21221978E-04
  6940.5558       0.98003853       0.98350599       0.99005032       0.99351770       0.54900012E-03   0.55473173E-05
  6944.6547       0.98239080       0.98353346       0.99237029       0.99351287       0.53981250E-03  -0.93790400E-05
  6948.7497       0.98446169       0.98357174       0.99440602       0.99351599       0.47214947E-03  -0.17121507E-04
  6952.8534       0.98626179       0.98362073       0.99616798       0.99352684       0.39943897E-03  -0.15588797E-04
  6956.9700       0.98774517       0.98368035       0.99761017       0.99354527       0.34400580E-03  -0.18881274E-04
  6961.0817       0.98909239       0.98375012       0.99891332       0.99357097       0.24407748E-03  -0.27393918E-04
  6965.2064       0.98975551       0.98383013       0.99952930       0.99360385       0.11837677E-03  -0.30346100E-04
  6969.3452       0.99007059       0.98392029       0.99979414       0.99364375      -0.66873643E-05  -0.26263864E-04
  6973.4785       0.98970019       0.98401994       0.99937060       0.99369027      -0.98880010E-04  -0.16180920E-04
  6977.6202       0.98925237       0.98412919       0.99886657       0.99374331      -0.14058334E-03  -0.42140155E-05
  6981.7629       0.98853555       0.98424764       0.99809056       0.99380258      -0.13379043E-03   0.20469682E-05
  6985.9086       0.98814346       0.98437513       0.99763627       0.99386787      -0.12361717E-03  -0.10438105E-05
  6990.0711       0.98750851       0.98451189       0.99693589       0.99393920      -0.14246265E-03   0.29091715E-05
  6994.2354       0.98695719       0.98465725       0.99631611       0.99401610      -0.99392998E-04   0.26919409E-05
  6998.4029       0.98668038       0.98481103       0.99596779       0.99409837      -0.12003394E-03  -0.98370542E-05
  7002.5780       0.98595580       0.98497318       0.99516856       0.99418587      -0.18145944E-03  -0.99365677E-05
  7006.7475       0.98516617       0.98514295       0.99430137       0.99427807      -0.20295112E-03   0.15606627E-05
  7010.9268       0.98426140       0.98532072       0.99331585       0.99437510      -0.16842977E-03   0.22062867E-04
  7015.1134       0.98375711       0.98550620       0.99272764       0.99447665      -0.18376396E-04   0.21195154E-04
  7019.2973       0.98410758       0.98569870       0.99299123       0.99458226       0.89828257E-05   0.35576065E-05
  7023.4918       0.98383237       0.98589860       0.99262587       0.99469202       0.11430523E-04   0.13052068E-04
  7027.6865       0.98420348       0.98610520       0.99290378       0.99480543       0.11847943E-03   0.19166673E-04
  7032.0863       0.98485064       0.98632881       0.99344994       0.99492802       0.17615893E-03   0.12505882E-04
  7036.4989       0.98575586       0.98655988       0.99425049       0.99505443       0.22868656E-03   0.67380955E-05
  7040.7019       0.98682091       0.98678606       0.99521271       0.99517779       0.23421148E-03  -0.10071877E-05
  7044.8983       0.98772309       0.98701755       0.99600919       0.99530357       0.22022681E-03  -0.10385800E-05
  7049.1054       0.98867159       0.98725506       0.99684866       0.99543205       0.22548373E-03  -0.50158012E-05
  7053.3085       0.98961946       0.98749753       0.99768454       0.99556254       0.17804292E-03  -0.17880382E-04
  7057.5231       0.99017031       0.98774561       0.99812005       0.99569527       0.74971538E-04  -0.25378747E-04
  7061.7464       0.99025206       0.98799891       0.99808313       0.99582990      -0.36101041E-04  -0.20448077E-04
  7065.9661       0.98986551       0.98825646       0.99757494       0.99596581      -0.97670511E-04  -0.11085934E-04
  7070.1948       0.98942690       0.98851878       0.99701134       0.99610314      -0.12975952E-03  -0.74739367E-05
  7074.4153       0.98876915       0.98878454       0.99622576       0.99624107      -0.16081919E-03   0.39341736E-05
  7078.8467       0.98803551       0.98906756       0.99535459       0.99638657      -0.95721514E-04   0.92919080E-05
  7083.7221       0.98787829       0.98938330       0.99504214       0.99654708      -0.74341024E-04   0.12144015E-05
  7088.5875       0.98731137       0.98970262       0.99431623       0.99670740      -0.83892268E-04   0.43644598E-05
  7093.2708       0.98707722       0.99001389       0.99392516       0.99686175      -0.32666045E-04   0.16843352E-04
  7098.1820       0.98699796       0.99034437       0.99367728       0.99702362       0.77711875E-04   0.17753957E-04
  7103.0694       0.98783869       0.99067733       0.99434607       0.99718464       0.14129759E-03  -0.30137357E-05
  7107.7629       0.98835171       0.99100088       0.99469009       0.99733918       0.48837642E-04  -0.98273513E-05
  7112.6822       0.98830816       0.99134392       0.99446532       0.99750101       0.46829149E-04   0.20950661E-04
  7117.6006       0.98881240       0.99169088       0.99478420       0.99766260       0.25494280E-03   0.34673730E-04
  7122.3149       0.99076395       0.99202714       0.99655415       0.99781727       0.38083148E-03   0.14434434E-05
  7127.2406       0.99248364       0.99238228       0.99808000       0.99797857       0.26885767E-03  -0.22183707E-04
  7132.1777       0.99341564       0.99274211       0.99881351       0.99813990       0.16203753E-03  -0.13467625E-04
  7137.1014       0.99408145       0.99310476       0.99927717       0.99830040       0.13605640E-03  -0.41822041E-06
  7142.0580       0.99475992       0.99347362       0.99974791       0.99846152       0.15790539E-03   0.37446253E-05
  7146.8038       0.99561352       0.99383029        1.0003986       0.99861533       0.17238845E-03  -0.57750752E-05
  7151.5495       0.99639615       0.99419035        1.0009745       0.99876862       0.10309133E-03  -0.10213707E-04
  7156.5329       0.99661650       0.99457204        1.0009735       0.99892901       0.73018511E-04   0.20483092E-05
  7161.4961       0.99712243       0.99495581        1.0012548       0.99908810       0.12346506E-03  -0.21022442E-05
  7166.4700       0.99784339       0.99534396        1.0017463       0.99924683       0.52128321E-04  -0.82498359E-05
  7171.4398       0.99764078       0.99573532        1.0013102       0.99940468       0.41430997E-04  -0.44815087E-06
  7176.4195       0.99825560       0.99613093        1.0016868       0.99956204       0.47669454E-04  -0.57920179E-05
  7181.4295       0.99811698       0.99653241        1.0013041       0.99971949      -0.16429078E-04  -0.37474622E-05
  7186.2108       0.99809474       0.99691876        1.0010450       0.99986891       0.10976804E-04   0.60169327E-06
  7191.0167       0.99822222       0.99731018        1.0009303        1.0000182      -0.10660476E-04  -0.26281713E-05
  7196.0434       0.99798992       0.99772285        1.0004405        1.0001734      -0.14864968E-04   0.25485068E-05
  7201.0693       0.99807279       0.99813875        1.0002615        1.0003274       0.14958455E-04   0.33376557E-05
  7206.1154       0.99814058       0.99855957        1.0000620        1.0004809       0.18751716E-04   0.56742265E-05
  7211.1643       0.99826209       0.99898385       0.99991169        1.0006334       0.72240146E-04   0.79027762E-05
  7216.0220       0.99885624       0.99939504        1.0002401        1.0007789       0.97041390E-04   0.17070166E-05
  7221.1037       0.99922662       0.99982827        1.0003282        1.0009298       0.89206831E-04  -0.39137933E-05
  7226.2091       0.99976500        1.0002666        1.0005785        1.0010800       0.57171014E-04  -0.21397197E-05
  7231.1048       0.99979839        1.0006899        1.0003313        1.0012227       0.67807285E-04   0.10096650E-05
  7235.9993        1.0004288        1.0011158        1.0006772        1.0013641       0.67055867E-04  -0.39912920E-05
  7241.1302        1.0004707        1.0015652        1.0004162        1.0015107       0.27793222E-04  -0.24137048E-05
  7246.2473        1.0007137        1.0020164        1.0003527        1.0016553       0.42320249E-04   0.74279043E-05
  7251.1730        1.0008957        1.0024533        1.0002354        1.0017930       0.10239018E-03   0.73904152E-05
  7256.3191        1.0017449        1.0029126        1.0007675        1.0019351       0.11675462E-03  -0.40918437E-05
  7261.4751        1.0020985        1.0033756        1.0007987        1.0020757       0.60235412E-04  -0.42750030E-07
  7266.4235        1.0023536        1.0038225        1.0007401        1.0022090       0.11632265E-03   0.87581339E-05
  7271.3716        1.0032497        1.0042719        1.0013182        1.0023404       0.14691027E-03   0.28448313E-05
  7276.5488        1.0038411        1.0047447        1.0015725        1.0024760       0.14512733E-03  -0.82393448E-06
  7282.1611        1.0048155        1.0052602        1.0021762        1.0026207       0.13802039E-03  -0.31158886E-05
  7287.8047        1.0053946        1.0057815        1.0023770        1.0027637       0.11005507E-03  -0.51852624E-05
  7293.2485        1.0060358        1.0062870        1.0026480        1.0028992       0.80529355E-04   0.54341049E-06
  7298.6906        1.0062713        1.0067950        1.0025084        1.0030321       0.11597058E-03   0.49063698E-05
  7304.1381        1.0072986        1.0073060        1.0031551        1.0031624       0.13395773E-03  -0.32575760E-05
  7309.7854        1.0077575        1.0078383        1.0032140        1.0032947       0.79828449E-04  -0.26964872E-05
  7315.4978        1.0082055        1.0083792        1.0032518        1.0034255       0.10332640E-03   0.96804379E-05
  7320.9776        1.0089139        1.0089004        1.0035614        1.0035479       0.18817329E-03   0.30410129E-05
  7326.4552        1.0102673        1.0094235        1.0045110        1.0036672       0.13664771E-03  -0.98855884E-05
  7332.1705        1.0104434        1.0099716        1.0042602        1.0037883       0.77524289E-04  -0.42158602E-05
  7337.8887        1.0111537        1.0105220        1.0045378        1.0039060       0.88445375E-04   0.25409195E-05
  7343.3919        1.0114359        1.0110536        1.0043982        1.0040158       0.10603693E-03   0.30645821E-05
  7348.8952        1.0123208        1.0115870        1.0048560        1.0041221       0.12217576E-03  -0.56419232E-06
  7354.6172        1.0128074        1.0121434        1.0048930        1.0042290       0.99703704E-04  -0.39823144E-05
  7360.3403        1.0134619        1.0127016        1.0050923        1.0043318       0.76597754E-04  -0.33621014E-05
  7365.8840        1.0136704        1.0132438        1.0048543        1.0044276       0.61823667E-04   0.26623816E-05
  7371.4297        1.0141475        1.0137876        1.0048795        1.0045195       0.10612190E-03   0.78871899E-05
  7377.2018        1.0148714        1.0143550        1.0051275        1.0046109       0.15108950E-03  -0.17068994E-05
  7382.9607        1.0158897        1.0149224        1.0056651        1.0046977       0.86439731E-04  -0.97107308E-05
  7388.5131        1.0158492        1.0154706        1.0051557        1.0047771       0.41248833E-04  -0.28674538E-05
  7394.3309        1.0163587        1.0160461        1.0051683        1.0048556       0.53836099E-04   0.48829482E-05
  7400.1427        1.0164753        1.0166219        1.0047826        1.0049292       0.98035899E-04   0.78211297E-05
  7405.9371        1.0174966        1.0171970        1.0052973        1.0049976       0.14460975E-03   0.11068719E-05
  7411.7556        1.0181546        1.0177751        1.0054408        1.0050612       0.11088982E-03  -0.85614380E-05
  7417.3760        1.0187650        1.0183343        1.0055486        1.0051178       0.46676043E-04  -0.15475724E-06
  7423.0046        1.0186797        1.0188947        1.0049545        1.0051695       0.10914894E-03   0.99507525E-05
  7428.8404        1.0200163        1.0194762        1.0057579        1.0052177       0.16075447E-03  -0.28355104E-05
  7434.6772        1.0205561        1.0200582        1.0057584        1.0052604       0.76051108E-04  -0.59935429E-05
  7440.3335        1.0208904        1.0206223        1.0055645        1.0052963       0.91869789E-04   0.46139132E-05
  7446.0180        1.0215980        1.0211893        1.0057357        1.0053270       0.12837627E-03  -0.30142249E-05
  7451.9133        1.0223770        1.0217774        1.0059525        1.0053529       0.56965632E-04  -0.89196932E-05
  7457.8077        1.0222696        1.0223653        1.0052770        1.0053726       0.23215278E-04   0.20166446E-05
  7463.4879        1.0226457        1.0229315        1.0051000        1.0053857       0.80307564E-04   0.63069947E-05
  7469.2068        1.0231850        1.0235013        1.0050768        1.0053930       0.95109436E-04   0.32146103E-05
  7475.1831        1.0237580        1.0240963        1.0050558        1.0053940       0.11790289E-03   0.23344624E-06
  7481.1111        1.0245886        1.0246858        1.0052912        1.0053884       0.97888444E-04  -0.23774692E-05
  7486.8151        1.0248966        1.0252524        1.0050209        1.0053766       0.90248095E-04   0.15377922E-05
  7492.5644        1.0256222        1.0258227        1.0051577        1.0053582       0.11550124E-03  -0.54420781E-06
  7498.5622        1.0262534        1.0264168        1.0051687        1.0053320       0.83855253E-04  -0.48967890E-05
  7504.7524        1.0266442        1.0270289        1.0049128        1.0052974       0.55819247E-04  -0.97516933E-06
  7510.9676        1.0269459        1.0276425        1.0045586        1.0052551       0.71757835E-04   0.54928316E-05
  7516.9819        1.0275218        1.0282357        1.0044934        1.0052072       0.12299397E-03   0.17476293E-05
  7523.2401        1.0284553        1.0288524        1.0047532        1.0051502       0.93205579E-04  -0.22381230E-05
  7529.6902        1.0287063        1.0294876        1.0043027        1.0050839       0.94551243E-04   0.49681960E-05
  7535.9867        1.0296605        1.0301074        1.0045653        1.0050120       0.15653323E-03   0.29343845E-05
  7542.2912        1.0306787        1.0307280        1.0048840        1.0049332       0.13152730E-03  -0.42172736E-05
  7548.5558        1.0313137        1.0313447        1.0048172        1.0048481       0.10352605E-03  -0.13398221E-05
  7554.8503        1.0319789        1.0319647        1.0047705        1.0047562       0.11470033E-03   0.13754012E-05
  7561.2291        1.0327674        1.0325935        1.0048304        1.0046564       0.12095695E-03  -0.90622502E-06
  7567.5332        1.0335130        1.0332155        1.0048492        1.0045516       0.10320680E-03  -0.55958983E-06
  7573.8030        1.0340651        1.0338350        1.0046715        1.0044414       0.11392074E-03  -0.27777768E-05
  7580.1390        1.0349491        1.0344620        1.0048112        1.0043240       0.68190689E-04  -0.49720059E-05
  7586.4354        1.0349265        1.0350862        1.0040420        1.0042017       0.51112429E-04   0.51370983E-05
  7592.9482        1.0356038        1.0357333        1.0039399        1.0040693       0.13399278E-03   0.45297926E-05
  7599.5299        1.0366811        1.0363889        1.0042220        1.0039298       0.11042808E-03  -0.42613490E-05
  7605.8879        1.0370327        1.0370238        1.0037985        1.0037896       0.78852166E-04  -0.15025635E-05
  7612.2032        1.0376804        1.0376564        1.0036693        1.0036453       0.91385627E-04   0.84495258E-06
  7618.5501        1.0381898        1.0382942        1.0033910        1.0034953       0.89551122E-04   0.85960694E-06
  7624.9387        1.0388208        1.0389385        1.0032221        1.0033397       0.10233314E-03  -0.19522214E-06
  7631.5680        1.0395220        1.0396096        1.0030857        1.0031732       0.87009724E-04   0.54360143E-06
  7638.1757        1.0399726        1.0402813        1.0026940        1.0030026       0.10952880E-03   0.50089702E-05
  7644.3699        1.0409242        1.0409137        1.0028491        1.0028385       0.15113406E-03   0.13811222E-05
  7650.8021        1.0418809        1.0415733        1.0029716        1.0026640       0.12696738E-03  -0.22680348E-05
  7657.4475        1.0425846        1.0422582        1.0028061        1.0024796       0.12147374E-03  -0.34122985E-05
  7663.9232        1.0434747        1.0429291        1.0028418        1.0022961       0.82194273E-04  -0.48768654E-05
  7670.4424        1.0436527        1.0436081        1.0021524        1.0021077       0.58099517E-04   0.80570059E-06
  7676.9161        1.0442296        1.0442862        1.0018606        1.0019171       0.92662669E-04   0.39182643E-05
  7683.4303        1.0448562        1.0449726        1.0016058        1.0017220       0.10898970E-03   0.17255289E-05
  7689.9881        1.0456543        1.0456678        1.0015092        1.0015225       0.11521876E-03  -0.15885154E-05
  7696.5222        1.0463646        1.0463650        1.0013206        1.0013208       0.88193048E-04   0.82112439E-06
  7703.0280        1.0468044        1.0470637        1.0008580        1.0011173       0.12592613E-03   0.34317241E-05
  7709.5975        1.0480112        1.0477742        1.0011462        1.0009092       0.13306401E-03  -0.19615094E-05
  7716.4397        1.0485890        1.0485195        1.0007594        1.0006899       0.99618996E-04  -0.11296289E-05
  7723.1993        1.0493662        1.0492615        1.0005757        1.0004709       0.11769899E-03   0.13393756E-05
  7729.8269        1.0501646        1.0499946        1.0004243        1.0002542       0.11754949E-03  -0.66848507E-06
  7736.4902        1.0509285        1.0507374        1.0002256        1.0000344       0.10881426E-03  -0.56166173E-06
  7743.0859        1.0516074        1.0514787       0.99994414       0.99981532       0.11010243E-03   0.73693919E-06
  7749.7374        1.0523870        1.0522324       0.99974768       0.99959292       0.11857663E-03   0.11612098E-05
  7756.4469        1.0531917        1.0529989       0.99955996       0.99936710       0.12561742E-03  -0.15115708E-05
  7763.1388        1.0540705        1.0537696       0.99944124       0.99914023       0.98319367E-04  -0.21494729E-05
  7769.8415        1.0545087        1.0545474       0.99887252       0.99891117       0.96826122E-04   0.94527477E-06
  7776.9114        1.0554040        1.0553740       0.99869746       0.99866738       0.11133821E-03  -0.25718030E-06
  7783.8992        1.0560738        1.0561972       0.99830072       0.99842400       0.93210753E-04  -0.84976537E-07
  7790.9188        1.0567097        1.0570299       0.99785674       0.99817690       0.11014790E-03   0.21060850E-05
  7797.9869        1.0576255        1.0578742       0.99767669       0.99792524       0.12288061E-03   0.17971854E-05
  7805.0076        1.0584409        1.0587182       0.99739496       0.99767220       0.13546797E-03   0.13114906E-05
  7812.0841        1.0595353        1.0595744       0.99737485       0.99741386       0.14136899E-03  -0.10680810E-05
  7818.9284        1.0604089        1.0604073       0.99716238       0.99716065       0.12059938E-03  -0.26473311E-05
  7825.9834        1.0612115        1.0612706       0.99683697       0.99689600       0.10457302E-03  -0.72772102E-06
  7833.1203        1.0618930        1.0621488       0.99636859       0.99662429       0.11027168E-03   0.32658076E-05
  7840.2476        1.0627845        1.0630303       0.99610295       0.99634872       0.15115719E-03   0.36534866E-05
  7847.3380        1.0640421        1.0639116       0.99620079       0.99607019       0.16221585E-03  -0.16872810E-05
  7854.2455        1.0650551        1.0647740       0.99607557       0.99579441       0.12753891E-03  -0.44620915E-05
  7861.4197        1.0658381        1.0656737       0.99566758       0.99550314       0.99381761E-04  -0.98440546E-06
  7868.8091        1.0665025        1.0666043       0.99509606       0.99519775       0.11320240E-03   0.23412509E-05
  7876.0580        1.0674952        1.0675207       0.99486712       0.99489263       0.13365368E-03   0.49692763E-06
  7883.2425        1.0684316        1.0684324       0.99458382       0.99458456       0.12037478E-03  -0.16395113E-05
  7890.4526        1.0692279        1.0693504       0.99414713       0.99426953       0.11005356E-03   0.99156650E-07
  7897.4630        1.0699966        1.0702457       0.99370832       0.99395736       0.12178483E-03   0.78583180E-07
  7904.7106        1.0709643        1.0711739       0.99341878       0.99362833       0.11117400E-03   0.32624832E-06
  7911.9548        1.0716077        1.0721042       0.99279642       0.99329283       0.12651273E-03   0.42170063E-05
  7919.0254        1.0727753        1.0730143       0.99271989       0.99295876       0.17153930E-03  -0.13308295E-06
  7926.2926        1.0740672        1.0739516       0.99272401       0.99260837       0.12460461E-03  -0.54869461E-05
  7933.6504        1.0745977        1.0749025       0.99194137       0.99224613       0.91292667E-04   0.28694656E-05
  7940.7230        1.0753846        1.0758180       0.99145728       0.99189059       0.16601198E-03   0.29456138E-05
  7948.0264        1.0769842        1.0767646       0.99173537       0.99151568       0.13363898E-03  -0.64468635E-05
  7955.3677        1.0773417        1.0777173       0.99075510       0.99113064       0.71599416E-04   0.53704423E-06
  7962.7663        1.0780396        1.0786783       0.99009545       0.99073404       0.14155496E-03   0.83681064E-05
  7970.0921        1.0794260        1.0796304       0.99012830       0.99033265       0.19481521E-03   0.22949909E-05
  7977.2371        1.0808587        1.0805594       0.99023199       0.98993260       0.17476519E-03  -0.38194089E-05
  7984.6515        1.0819705        1.0815236       0.98995522       0.98950829       0.13920723E-03  -0.26753844E-05
  7992.2909        1.0829543        1.0825170       0.98949852       0.98906106       0.13449041E-03   0.10314756E-05
  7999.7304        1.0839984        1.0834840       0.98913005       0.98861550       0.15476076E-03  -0.18329551E-06
  8007.1509        1.0852541        1.0844479       0.98896722       0.98816095       0.13176664E-03  -0.34640545E-05
  8014.5359        1.0859493        1.0854064       0.98824130       0.98769829       0.10347365E-03   0.99360817E-07
  8021.7486        1.0867646        1.0863415       0.98765948       0.98723630       0.13321708E-03   0.30495942E-05
  8029.1921        1.0879018        1.0873052       0.98734547       0.98674877       0.14816919E-03  -0.26468570E-06
  8036.6172        1.0889676        1.0882649       0.98695418       0.98625134       0.12928157E-03  -0.22044424E-05
  8044.1444        1.0898348        1.0892359       0.98633445       0.98573548       0.11520773E-03  -0.18697195E-05
