# XDI/1.0 Athena/0.9.26
# Element.edge:                  K
# Element.symbol:                Mn
# Column.1:                      energy eV
# Column.2:                      norm
# Column.3:                      nbkg
# Column.4:                      flat
# Column.5:                      fbkg
# Column.6:                      nder
# Column.7:                      nsec
# Athena.e0:                     6553.783629
# Athena.eshift:                 0
# Athena.rbkg:                   1.0
# Athena.importance:             1
# Athena.standard:               None
# Athena.bkg_kweight:            2
# Athena.edge_step:              0.3749037
# Athena.fixed_step:             no
# Athena.pre_edge_range:         -150.000 -30.000
# Athena.pre_edge_line:          -0.397705 + 8.43239e-005 * E
# Athena.normalization_range:    150.000 1390.562
# Athena.post_edge_polynomial:   1.478770 - 0.000351385 * E + 3.15228931e-008 * E^2 + 0 * E^3
# Athena.spline_range_energy:    0.000 1490.499
# Athena.clamps:                 0 24
# Athena.spline_range_k:         0.000 19.779
# Athena.kweight:                2
# Athena.window:                 hanning
# Athena.phase_correction:       no
# Athena.k_range:                1 12
# Athena.dk:                     1
# Athena.r_range:                1 2
# Athena.dr:                     0.0
# Athena.window:                 hanning
# Athena.plot_multiplier:        1
# Athena.y_offset:               0
# ///
#------------------------
#   e         norm        nbkg        flat        fbkg        nder        nsec
  6213.4561       0.74625022E-02   0.74625021E-02   0.74625021E-02   0.74625021E-02   0.12071545E-04  -0.67834749E-05
  6219.2095       0.75319548E-02   0.75319546E-02   0.75319546E-02   0.75319546E-02  -0.26956554E-04  -0.52619491E-05
  6224.9751       0.71519902E-02   0.71519901E-02   0.71519900E-02   0.71519901E-02  -0.48540752E-04  -0.14515396E-07
  6230.7593       0.69713162E-02   0.69713161E-02   0.69713161E-02   0.69713161E-02  -0.27124205E-04   0.19881336E-05
  6236.4192       0.68415779E-02   0.68415777E-02   0.68415777E-02   0.68415777E-02  -0.25788337E-04  -0.27731022E-07
  6242.1150       0.66784738E-02   0.66784737E-02   0.66784737E-02   0.66784737E-02  -0.27439107E-04  -0.57553387E-06
  6247.9869       0.65241704E-02   0.65241702E-02   0.65241702E-02   0.65241702E-02  -0.32445943E-04  -0.14610951E-05
  6253.8607       0.62973739E-02   0.62973738E-02   0.62973738E-02   0.62973738E-02  -0.44600676E-04  -0.16672831E-05
  6259.5858       0.60068526E-02   0.60068525E-02   0.60068524E-02   0.60068525E-02  -0.51784556E-04   0.36370874E-06
  6265.3509       0.57023556E-02   0.57023555E-02   0.57023555E-02   0.57023555E-02  -0.40421566E-04   0.22711539E-05
  6271.2881       0.55338243E-02   0.55338242E-02   0.55338242E-02   0.55338242E-02  -0.25206666E-04   0.18563967E-05
  6277.0638       0.54071122E-02   0.54071121E-02   0.54071121E-02   0.54071121E-02  -0.18677758E-04  -0.10686806E-05
  6282.8421       0.53180220E-02   0.53180219E-02   0.53180219E-02   0.53180219E-02  -0.37554173E-04  -0.47409072E-05
  6288.7995       0.49663903E-02   0.49663902E-02   0.49663902E-02   0.49663902E-02  -0.74315301E-04  -0.68587081E-06
  6294.7678       0.44317593E-02   0.44317592E-02   0.44317592E-02   0.44317592E-02  -0.45733669E-04   0.51285013E-05
  6300.5787       0.44276837E-02   0.44276837E-02   0.44276836E-02   0.44276837E-02  -0.13905602E-04   0.10548232E-05
  6306.3796       0.42702901E-02   0.42702900E-02   0.42702900E-02   0.42702900E-02  -0.33485267E-04  -0.54836200E-05
  6312.3714       0.40328021E-02   0.40328020E-02   0.40328020E-02   0.40328020E-02  -0.78572282E-04  -0.61251867E-05
  6318.3720       0.33280240E-02   0.33280240E-02   0.33280240E-02   0.33280240E-02  -0.10694063E-03   0.45976416E-05
  6324.3719       0.27494533E-02   0.27494533E-02   0.27494533E-02   0.27494533E-02  -0.23397953E-04   0.12505157E-04
  6330.2072       0.30511033E-02   0.30511032E-02   0.30511032E-02   0.30511032E-02   0.41061101E-04   0.32249830E-06
  6336.0569       0.32292488E-02   0.32292487E-02   0.32292487E-02   0.32292487E-02  -0.19629587E-04  -0.71214542E-05
  6342.1056       0.28175429E-02   0.28175429E-02   0.28175429E-02   0.28175429E-02  -0.43672695E-04  -0.15206025E-05
  6348.1765       0.26999511E-02   0.26999511E-02   0.26999511E-02   0.26999511E-02  -0.38058753E-04  -0.50793457E-06
  6354.0752       0.23619959E-02   0.23619959E-02   0.23619958E-02   0.23619959E-02  -0.49752455E-04   0.22496362E-05
  6359.9742       0.21129866E-02   0.21129866E-02   0.21129866E-02   0.21129866E-02  -0.11518223E-04   0.20338840E-05
  6366.0657       0.22238862E-02   0.22238862E-02   0.22238862E-02   0.22238862E-02  -0.25365096E-04  -0.11060634E-05
  6372.1707       0.18036219E-02   0.18036218E-02   0.18036218E-02   0.18036218E-02  -0.25008298E-04   0.23771708E-05
  6378.1219       0.19223812E-02   0.19223811E-02   0.19223811E-02   0.19223811E-02   0.32945533E-05  -0.13093151E-06
  6384.0560       0.18427786E-02   0.18427785E-02   0.18427785E-02   0.18427785E-02  -0.26564456E-04  -0.33440276E-05
  6390.1792       0.16020850E-02   0.16020850E-02   0.16020849E-02   0.16020850E-02  -0.37025460E-04  -0.33109538E-06
  6396.3252       0.13885040E-02   0.13885040E-02   0.13885040E-02   0.13885040E-02  -0.30626748E-04   0.54099203E-07
  6402.4844       0.12252180E-02   0.12252180E-02   0.12252180E-02   0.12252180E-02  -0.36359761E-04  -0.97958051E-06
  6408.4683       0.94698288E-03   0.94698288E-03   0.94698286E-03   0.94698288E-03  -0.42521916E-04   0.11131786E-06
  6414.4709       0.71552723E-03   0.71552724E-03   0.71552722E-03   0.71552724E-03  -0.35025445E-04   0.20430234E-05
  6420.6720       0.51954415E-03   0.51954416E-03   0.51954414E-03   0.51954416E-03  -0.17589547E-04   0.68744995E-06
  6426.8980       0.49694062E-03   0.49694063E-03   0.49694061E-03   0.49694063E-03  -0.26482453E-04  -0.63498889E-06
  6432.9589       0.19415754E-03   0.19415756E-03   0.19415753E-03   0.19415756E-03  -0.25391576E-04   0.20025189E-05
  6439.0277       0.18894880E-03   0.18894882E-03   0.18894879E-03   0.18894882E-03  -0.21925291E-05  -0.80247395E-06
  6445.3155       0.16706528E-03   0.16706530E-03   0.16706527E-03   0.16706530E-03  -0.35307447E-04  -0.43828814E-05
  6451.6271      -0.25590403E-03  -0.25590400E-03  -0.25590402E-03  -0.25590400E-03  -0.57414227E-04   0.97004833E-06
  6457.7758      -0.54833540E-03  -0.54833536E-03  -0.54833539E-03  -0.54833536E-03  -0.23220317E-04   0.53532776E-05
  6463.9452      -0.54193486E-03  -0.54193482E-03  -0.54193485E-03  -0.54193482E-03   0.85281314E-05   0.10290815E-05
  6470.0998      -0.44323510E-03  -0.44323506E-03  -0.44323509E-03  -0.44323506E-03  -0.10537964E-04  -0.24700269E-05
  6476.2716      -0.67182967E-03  -0.67182963E-03  -0.67182965E-03  -0.67182963E-03  -0.21918326E-04   0.12161796E-05
  6482.6317      -0.71791280E-03  -0.71791276E-03  -0.71791279E-03  -0.71791276E-03   0.47030457E-05   0.17344005E-05
  6488.8072      -0.61287401E-03  -0.61287397E-03  -0.61287399E-03  -0.61287397E-03  -0.17651630E-06  -0.85667315E-06
  6495.0038      -0.72009668E-03  -0.72009664E-03  -0.72009667E-03  -0.72009664E-03  -0.58958224E-05  -0.10854025E-05
  6499.9840      -0.67877023E-03  -0.67877019E-03  -0.67877022E-03  -0.67877019E-03  -0.12307804E-04  -0.39593055E-05
  6501.8179      -0.80396403E-03  -0.80396399E-03  -0.80396402E-03  -0.80396399E-03  -0.32875164E-04   0.53924547E-03
  6502.0082      -0.74531479E-03  -0.74531475E-03  -0.74531477E-03  -0.74531475E-03   0.10792108E-02   0.12354662E-02
  6502.3673      -0.21112119E-03  -0.21112116E-03  -0.21112118E-03  -0.21112116E-03   0.64580350E-03  -0.17794955E-02
  6502.8634      -0.19302299E-03  -0.19302296E-03  -0.19302299E-03  -0.19302296E-03  -0.44261555E-03  -0.13652194E-02
  6503.3240      -0.63455865E-03  -0.63455861E-03  -0.63455864E-03  -0.63455861E-03  -0.66026229E-03   0.39131309E-03
  6503.6405      -0.70616234E-03  -0.70616230E-03  -0.70616232E-03  -0.70616230E-03  -0.13849680E-03   0.14021676E-02
  6503.9963      -0.72767517E-03  -0.72767513E-03  -0.72767516E-03  -0.72767513E-03   0.28246686E-03   0.95426940E-03
  6504.3912      -0.49411899E-03  -0.49411895E-03  -0.49411898E-03  -0.49411895E-03   0.57785797E-03  -0.44436735E-03
  6504.7862      -0.27121649E-03  -0.27121646E-03  -0.27121649E-03  -0.27121646E-03  -0.68545582E-04  -0.13716195E-02
  6505.1812      -0.54827109E-03  -0.54827106E-03  -0.54827108E-03  -0.54827106E-03  -0.50574338E-03  -0.35819044E-04
  6505.3717      -0.56730395E-03  -0.56730392E-03  -0.56730394E-03  -0.56730392E-03  -0.89515841E-04   0.37703665E-02
  6505.5621      -0.58236284E-03  -0.58236281E-03  -0.58236283E-03  -0.58236281E-03   0.93018563E-03   0.40166345E-03
  6505.9216      -0.55738135E-04  -0.55738109E-04  -0.55738134E-04  -0.55738109E-04   0.13138339E-03  -0.20191420E-02
  6506.4165      -0.47010848E-03  -0.47010844E-03  -0.47010847E-03  -0.47010844E-03  -0.79497539E-03  -0.67728177E-03
  6506.8758      -0.81431160E-03  -0.81431156E-03  -0.81431158E-03  -0.81431156E-03  -0.51488564E-03   0.42096110E-04
  6507.1963      -0.87164153E-03  -0.87164149E-03  -0.87164151E-03  -0.87164149E-03  -0.76214678E-03   0.13424412E-02
  6507.5525      -0.13300335E-02  -0.13300334E-02  -0.13300334E-02  -0.13300334E-02   0.39350407E-03   0.22023640E-02
  6507.9479      -0.57590473E-03  -0.57590470E-03  -0.57590472E-03  -0.57590470E-03   0.89303326E-03  -0.20379106E-03
  6508.3469      -0.62062035E-03  -0.62062031E-03  -0.62062033E-03  -0.62062031E-03   0.23161530E-03  -0.85870094E-03
  6508.7424      -0.39188939E-03  -0.39188936E-03  -0.39188938E-03  -0.39188936E-03   0.21080652E-03  -0.13303470E-02
  6508.9330      -0.49706158E-03  -0.49706155E-03  -0.49706157E-03  -0.49706155E-03  -0.54813300E-03  -0.88695589E-03
  6509.1237      -0.60088373E-03  -0.60088370E-03  -0.60088372E-03  -0.60088370E-03  -0.12737557E-03   0.12417514E-02
  6509.4836      -0.56719381E-03  -0.56719377E-03  -0.56719379E-03  -0.56719377E-03   0.13556788E-03   0.24602736E-03
  6509.9808      -0.48467915E-03  -0.48467911E-03  -0.48467914E-03  -0.48467911E-03   0.83511457E-04  -0.41125437E-03
  6510.4460      -0.48681912E-03  -0.48681909E-03  -0.48681911E-03  -0.48681909E-03  -0.26023936E-03  -0.32831390E-03
  6510.7669      -0.68925201E-03  -0.68925197E-03  -0.68925200E-03  -0.68925197E-03  -0.17457446E-03   0.13915180E-02
  6511.1235      -0.60508476E-03  -0.60508473E-03  -0.60508475E-03  -0.60508473E-03   0.68244591E-03   0.43412344E-03
  6511.5229      -0.17333587E-03  -0.17333584E-03  -0.17333586E-03  -0.17333584E-03   0.15361461E-03  -0.12915852E-02
  6511.9188      -0.48291476E-03  -0.48291472E-03  -0.48291474E-03  -0.48291472E-03  -0.34475441E-03   0.28807384E-03
  6512.1168      -0.37807138E-03  -0.37807135E-03  -0.37807137E-03  -0.37807135E-03   0.32468986E-03   0.54267081E-03
  6512.3147      -0.35435575E-03  -0.35435572E-03  -0.35435575E-03  -0.35435572E-03  -0.12988717E-03   0.41996265E-03
  6512.6965      -0.45336723E-03  -0.45336719E-03  -0.45336722E-03  -0.45336719E-03   0.56814304E-03   0.46848850E-03
  6513.0568       0.67255246E-04   0.67255269E-04   0.67255244E-04   0.67255269E-04   0.21777159E-03  -0.72973946E-03
  6513.5510      -0.26726181E-03  -0.26726178E-03  -0.26726180E-03  -0.26726178E-03  -0.55484998E-04  -0.35862643E-03
  6514.0132       0.14188783E-04   0.14188807E-04   0.14188783E-04   0.14188807E-04  -0.12522267E-03  -0.36662147E-03
  6514.3345      -0.36536526E-03  -0.36536522E-03  -0.36536525E-03  -0.36536522E-03  -0.34270799E-03   0.66357627E-03
  6514.6879      -0.21702293E-03  -0.21702290E-03  -0.21702293E-03  -0.21702290E-03   0.32246636E-03   0.11746102E-02
  6515.0878      -0.12245780E-03  -0.12245777E-03  -0.12245779E-03  -0.12245777E-03   0.54210242E-03  -0.70718994E-03
  6515.4841       0.21460823E-03   0.21460825E-03   0.21460822E-03   0.21460825E-03  -0.24061029E-03  -0.12258425E-02
  6515.8805      -0.31320136E-03  -0.31320133E-03  -0.31320136E-03  -0.31320133E-03  -0.42968302E-03   0.26613749E-02
  6516.0716      -0.37820234E-04  -0.37820209E-04  -0.37820233E-04  -0.37820209E-04   0.13228836E-02  -0.38730733E-04
  6516.2627       0.19235579E-03   0.19235581E-03   0.19235579E-03   0.19235581E-03  -0.44448447E-03  -0.26290698E-02
  6516.6234      -0.28311521E-03  -0.28311518E-03  -0.28311521E-03  -0.28311518E-03  -0.12800541E-03   0.12779757E-02
  6517.1218       0.82380455E-04   0.82380478E-04   0.82380453E-04   0.82380478E-04   0.65348322E-03   0.89474164E-03
  6517.5845       0.34493771E-03   0.34493773E-03   0.34493771E-03   0.34493773E-03   0.73191736E-03  -0.23660454E-03
  6517.9026       0.65383299E-03   0.65383300E-03   0.65383297E-03   0.65383300E-03   0.46875163E-03  -0.16691183E-02
  6518.2600       0.66155084E-03   0.66155085E-03   0.66155083E-03   0.66155085E-03  -0.39547023E-03  -0.41736156E-03
  6518.6567       0.35558951E-03   0.35558953E-03   0.35558950E-03   0.35558953E-03   0.15399882E-03   0.10996544E-02
  6519.0535       0.78375815E-03   0.78375816E-03   0.78375813E-03   0.78375816E-03   0.47717155E-03   0.18682589E-03
  6519.4540       0.73600832E-03   0.73600833E-03   0.73600831E-03   0.73600833E-03   0.30294333E-03   0.79660158E-03
  6519.6453       0.96301820E-03   0.96301821E-03   0.96301818E-03   0.96301821E-03   0.94854301E-03  -0.33562127E-02
  6519.8366       0.10989247E-02   0.10989247E-02   0.10989246E-02   0.10989247E-02  -0.98115708E-03  -0.20350513E-02
  6520.2013       0.41741932E-03   0.41741933E-03   0.41741931E-03   0.41741933E-03  -0.18310224E-03   0.17364742E-02
  6520.6985       0.94110427E-03   0.94110428E-03   0.94110425E-03   0.94110428E-03   0.51555345E-03   0.32139114E-03
  6521.1635       0.91348176E-03   0.91348176E-03   0.91348174E-03   0.91348176E-03   0.12613839E-03   0.19447236E-03
  6521.4855       0.10403787E-02   0.10403787E-02   0.10403787E-02   0.10403787E-02   0.66860864E-03   0.33701141E-03
  6521.8398       0.13656070E-02   0.13656070E-02   0.13656069E-02   0.13656070E-02   0.35403157E-03  -0.85482309E-03
  6522.2405       0.13076796E-02   0.13076796E-02   0.13076796E-02   0.13076796E-02   0.23200118E-04  -0.21826347E-03
  6522.6342       0.13840389E-02   0.13840389E-02   0.13840389E-02   0.13840389E-02   0.18062626E-03   0.18841039E-03
  6523.0315       0.14505548E-02   0.14505548E-02   0.14505548E-02   0.14505548E-02   0.17223254E-03   0.83818228E-04
  6523.2248       0.14857631E-02   0.14857631E-02   0.14857630E-02   0.14857631E-02   0.23013106E-03   0.63999174E-03
  6523.4182       0.15395292E-02   0.15395292E-02   0.15395292E-02   0.15395292E-02   0.41966935E-03  -0.12963032E-03
  6523.7762       0.17171465E-02   0.17171465E-02   0.17171465E-02   0.17171465E-02   0.15865978E-03  -0.66211893E-03
  6524.2757       0.16755878E-02   0.16755878E-02   0.16755877E-02   0.16755878E-02  -0.14813007E-03  -0.22412076E-04
  6524.7359       0.15749828E-02   0.15749828E-02   0.15749828E-02   0.15749828E-02   0.13715041E-03   0.64284605E-03
  6525.0547       0.17824253E-02   0.17824253E-02   0.17824253E-02   0.17824253E-02   0.35263479E-03  -0.38133356E-03
  6525.4129       0.18137155E-02   0.18137155E-02   0.18137155E-02   0.18137155E-02  -0.12101126E-03  -0.30731368E-03
  6525.8106       0.16909544E-02   0.16909544E-02   0.16909543E-02   0.16909544E-02   0.12034006E-03   0.68265048E-03
  6526.2083       0.19094329E-02   0.19094329E-02   0.19094329E-02   0.19094329E-02   0.42196279E-03   0.54461644E-03
  6526.6097       0.20281351E-02   0.20281351E-02   0.20281351E-02   0.20281351E-02   0.55553053E-03   0.93135942E-03
  6526.7996       0.22379187E-02   0.22379187E-02   0.22379186E-02   0.22379187E-02   0.97267655E-03  -0.57405767E-03
  6526.9896       0.23976569E-02   0.23976569E-02   0.23976569E-02   0.23976569E-02   0.33744487E-03  -0.97819606E-03
  6527.3516       0.24241825E-02   0.24241825E-02   0.24241825E-02   0.24241825E-02   0.43272895E-03   0.33563401E-03
  6527.8517       0.27707216E-02   0.27707216E-02   0.27707216E-02   0.27707216E-02   0.62680200E-03  -0.19467243E-03
  6528.3196       0.30309262E-02   0.30309262E-02   0.30309262E-02   0.30309262E-02   0.24428624E-03   0.42526801E-03
  6528.6387       0.29629874E-02   0.29629873E-02   0.29629873E-02   0.29629873E-02   0.96150961E-03  -0.82923170E-03
  6528.9938       0.36791683E-02   0.36791683E-02   0.36791682E-02   0.36791683E-02  -0.31477514E-03  -0.18724678E-02
  6529.3955       0.27247778E-02   0.27247778E-02   0.27247777E-02   0.27247778E-02  -0.45550102E-03   0.18783128E-02
  6529.7937       0.33148149E-02   0.33148148E-02   0.33148148E-02   0.33148148E-02   0.11876798E-02   0.13948666E-02
  6530.1919       0.36706590E-02   0.36706590E-02   0.36706590E-02   0.36706590E-02   0.65538612E-03  -0.15005005E-02
  6530.3857       0.37027930E-02   0.37027929E-02   0.37027929E-02   0.37027929E-02   0.29940748E-03   0.17756164E-02
  6530.5794       0.37866848E-02   0.37866848E-02   0.37866847E-02   0.37866848E-02   0.13434694E-02   0.35725753E-03
  6530.9455       0.44548645E-02   0.44548644E-02   0.44548644E-02   0.44548644E-02   0.49939953E-03  -0.12190644E-02
  6531.4425       0.42177250E-02   0.42177250E-02   0.42177250E-02   0.42177250E-02   0.29127424E-03   0.93335732E-03
  6531.9074       0.47350525E-02   0.47350524E-02   0.47350524E-02   0.47350524E-02   0.13972323E-02   0.13299527E-02
  6532.2269       0.53136722E-02   0.53136721E-02   0.53136721E-02   0.53136721E-02   0.13344492E-02  -0.21174476E-03
  6532.5860       0.56405577E-02   0.56405576E-02   0.56405576E-02   0.56405576E-02   0.12535506E-02  -0.49190788E-03
  6532.9845       0.62634060E-02   0.62634059E-02   0.62634059E-02   0.62634059E-02   0.96176261E-03  -0.57857970E-03
  6533.3832       0.64073028E-02   0.64073027E-02   0.64073026E-02   0.64073027E-02   0.79229008E-03   0.31677337E-03
  6533.7819       0.68951242E-02   0.68951241E-02   0.68951241E-02   0.68951241E-02   0.12143362E-02   0.64372281E-03
  6533.9723       0.71226390E-02   0.71226389E-02   0.71226389E-02   0.71226389E-02   0.11714917E-02   0.39333697E-02
  6534.1627       0.73412048E-02   0.73412047E-02   0.73412047E-02   0.73412047E-02   0.27120847E-02   0.34598704E-02
  6534.5255       0.86231216E-02   0.86231214E-02   0.86231214E-02   0.86231214E-02   0.30856927E-02   0.16224535E-02
  6535.0268       0.10007589E-01   0.10007589E-01   0.10007589E-01   0.10007589E-01   0.41140662E-02   0.38384241E-02
  6535.4922       0.12599947E-01   0.12599946E-01   0.12599946E-01   0.12599946E-01   0.67960709E-02   0.87422901E-02
  6535.8120       0.15344374E-01   0.15344373E-01   0.15344373E-01   0.15344373E-01   0.10979168E-01   0.10869045E-01
  6536.1679       0.20019109E-01   0.20019108E-01   0.20019108E-01   0.20019108E-01   0.14140817E-01   0.94827137E-02
  6536.5670       0.26019475E-01   0.26019474E-01   0.26019474E-01   0.26019474E-01   0.18137801E-01   0.11377939E-01
  6536.9661       0.34495758E-01   0.34495758E-01   0.34495758E-01   0.34495758E-01   0.23222097E-01   0.86825279E-02
  6537.3652       0.44556513E-01   0.44556512E-01   0.44556512E-01   0.44556512E-01   0.25068629E-01   0.24853826E-02
  6537.5576       0.49325181E-01   0.49325180E-01   0.49325180E-01   0.49325180E-01   0.24692332E-01  -0.16593633E-01
  6537.7500       0.54058518E-01   0.54058517E-01   0.54058517E-01   0.54058517E-01   0.18683134E-01  -0.15183488E-01
  6538.2860       0.62933191E-01   0.62933190E-01   0.62933190E-01   0.62933190E-01   0.13633317E-01  -0.74675523E-02
  6538.7716       0.67986451E-01   0.67986450E-01   0.67986450E-01   0.67986450E-01   0.11054208E-01  -0.10123617E-02
  6539.0811       0.71722314E-01   0.71722313E-01   0.71722313E-01   0.71722313E-01   0.12828396E-01   0.78133051E-04
  6539.4013       0.76064235E-01   0.76064234E-01   0.76064234E-01   0.76064234E-01   0.11103406E-01  -0.13432728E-01
  6539.7576       0.79234091E-01   0.79234089E-01   0.79234089E-01   0.79234089E-01   0.37407656E-02  -0.20306973E-01
  6540.1571       0.78891450E-01   0.78891448E-01   0.78891448E-01   0.78891448E-01  -0.42442993E-02  -0.13995462E-01
  6540.5603       0.75827323E-01   0.75827322E-01   0.75827322E-01   0.75827322E-01  -0.74929579E-02  -0.33279522E-02
  6540.9599       0.72876313E-01   0.72876311E-01   0.72876311E-01   0.72876311E-01  -0.69158862E-02   0.26335641E-02
  6541.1543       0.71719031E-01   0.71719030E-01   0.71719030E-01   0.71719030E-01  -0.59285233E-02   0.93907215E-02
  6541.3487       0.70570942E-01   0.70570940E-01   0.70570940E-01   0.70570940E-01  -0.32642009E-02   0.85297431E-02
  6541.8853       0.69332900E-01   0.69332899E-01   0.69332899E-01   0.69332899E-01   0.30671889E-03   0.70717324E-02
  6542.3679       0.70883546E-01   0.70883545E-01   0.70883545E-01   0.70883545E-01   0.39432381E-02   0.10662318E-01
  6542.6813       0.72471769E-01   0.72471767E-01   0.72471767E-01   0.72471767E-01   0.87940628E-02   0.15795867E-01
  6542.9983       0.76427394E-01   0.76427392E-01   0.76427392E-01   0.76427392E-01   0.13901079E-01   0.10926176E-01
  6543.3550       0.81837051E-01   0.81837049E-01   0.81837049E-01   0.81837049E-01   0.16155126E-01   0.97719078E-02
  6543.7514       0.88593092E-01   0.88593090E-01   0.88593090E-01   0.88593090E-01   0.21259863E-01   0.14826918E-01
  6544.1514       0.98768151E-01   0.98768149E-01   0.98768149E-01   0.98768149E-01   0.27963105E-01   0.17627358E-01
  6544.5515       0.11096623       0.11096623       0.11096623       0.11096623       0.35363424E-01   0.23898499E-01
  6544.9372       0.12655595       0.12655595       0.12655595       0.12655595       0.46742020E-01   0.33304296E-01
  6545.3013       0.14601452       0.14601452       0.14601452       0.14601452       0.60335785E-01   0.36736349E-01
  6545.6474       0.16940968       0.16940968       0.16940968       0.16940968       0.72834159E-01   0.42005416E-01
  6545.9612       0.19407421       0.19407421       0.19407421       0.19407421       0.88053101E-01   0.42423931E-01
  6546.2713       0.22434240       0.22434240       0.22434240       0.22434240       0.99300710E-01   0.22352542E-01
  6546.5923       0.25674647       0.25674646       0.25674646       0.25674646       0.10216059      -0.55870901E-03
  6546.9458       0.29324819       0.29324819       0.29324819       0.29324819       0.98923870E-01  -0.86836838E-02
  6547.3426       0.33097063       0.33097062       0.33097062       0.33097062       0.95645088E-01  -0.33242937E-02
  6547.7467       0.36985187       0.36985186       0.36985186       0.36985186       0.96261389E-01   0.16506064E-02
  6548.1472       0.40842505       0.40842504       0.40842504       0.40842504       0.96973208E-01   0.51812293E-02
  6548.5334       0.44613924       0.44613923       0.44613923       0.44613923       0.10033738       0.10520484E-01
  6548.9015       0.48410954       0.48410953       0.48410953       0.48410953       0.10490881       0.15603795E-01
  6549.2481       0.52111578       0.52111577       0.52111577       0.52111577       0.11148915       0.16865720E-01
  6549.5658       0.55816319       0.55816318       0.55816318       0.55816318       0.11611141       0.51855980E-02
  6549.8763       0.59405593       0.59405591       0.59405591       0.59405591       0.11474670      -0.11044255E-01
  6550.1976       0.63066773       0.63066772       0.63066772       0.63066772       0.10913292      -0.23524671E-01
  6550.5515       0.66774968       0.66774966       0.66774966       0.66774966       0.98861288E-01  -0.18594230E-01
  6550.9524       0.70528784       0.70528782       0.70528782       0.70528782       0.95098069E-01  -0.16648628E-02
  6551.3570       0.74434680       0.74434678       0.74434678       0.74434678       0.97520317E-01   0.46547821E-02
  6551.7580       0.78384611       0.78384609       0.78384609       0.78384609       0.98847766E-01   0.67270392E-02
  6552.1446       0.82219890       0.82219888       0.82219888       0.82219888       0.10281851       0.15088072E-01
  6552.5095       0.86112038       0.86112037       0.86112037       0.86112037       0.11018736       0.25721651E-01
  6552.8601       0.90103928       0.90103926       0.90103926       0.90103926       0.12122266       0.33465894E-01
  6553.1781       0.94217070       0.94217068       0.94217068       0.94217068       0.13256289       0.24372363E-01
  6553.4854       0.98393138       0.98393136       0.98393136       0.98393136       0.13646279      -0.31001247E-03
  6553.8071        1.0280035        2.3654384        1.0280049        2.3654398       0.13236790      -0.24954710E-01
  6554.1578        1.0729398        2.7889314        1.0729622        2.7889538       0.11968245      -0.28261843E-01
  6554.5592        1.1180111        2.6451234        1.1180577        2.6451699       0.11111346      -0.14750379E-01
  6554.9606        1.1621382        2.5091508        1.1622088        2.5092213       0.10784130      -0.10237982E-01
  6555.3621        1.2045940        2.3807940        1.2046886        2.3808886       0.10289366      -0.11482504E-01
  6555.7491        1.2432706        2.2640677        1.2433883        2.2641855       0.98787266E-01  -0.12542443E-01
  6556.1181        1.2792817        2.1590156        1.2794215        2.1591554       0.93411001E-01  -0.14150732E-01
  6556.4691        1.3105225        2.0645866        1.3106832        2.0647473       0.88599347E-01  -0.14450142E-01
  6556.7875        1.3385884        1.9834106        1.3387681        1.9835903       0.83738350E-01  -0.28535811E-01
  6557.0987        1.3632480        1.9080995        1.3634462        1.9082977       0.70631888E-01  -0.46728579E-01
  6557.4172        1.3830661        1.8350429        1.3832832        1.8352600       0.54312896E-01  -0.50941703E-01
  6557.7719        1.3998121        1.7583201        1.4000503        1.7585583       0.36337373E-01  -0.43744047E-01
  6558.1737        1.4105569        1.6771354        1.4108190        1.6773975       0.21218556E-01  -0.33494480E-01
  6558.5756        1.4168654        1.6018100        1.4171513        1.6020960       0.94178923E-02  -0.29952662E-01
  6558.9775        1.4181270        1.5321234        1.4184367        1.5324331      -0.28574829E-02  -0.33278470E-01
  6559.3687        1.4145993        1.4695228        1.4149321        1.4698557      -0.16973332E-01  -0.38600914E-01
  6559.7381        1.4052181        1.4149267        1.4055728        1.4152814      -0.32215176E-01  -0.41938319E-01
  6560.0894        1.3913789        1.3669265        1.3917543        1.3673019      -0.47202137E-01  -0.43317387E-01
  6560.4119        1.3734142        1.3261182        1.3738087        1.3265126      -0.61401565E-01  -0.39031427E-01
  6560.7234        1.3524503        1.2895144        1.3528631        1.2899272      -0.71948062E-01  -0.20250235E-01
  6561.0423        1.3280551        1.2548290        1.3284867        1.2552606      -0.74168164E-01   0.46695673E-02
  6561.3974        1.3024615        1.2193653        1.3029140        1.2198178      -0.68800811E-01   0.10915165E-01
  6561.7997        1.2759438        1.1830370        1.2764199        1.1835132      -0.65900767E-01   0.84915111E-02
  6562.2021        1.2494356        1.1505743        1.2499353        1.1510741      -0.61968261E-01   0.84848558E-02
  6562.6045        1.2260757        1.1217552        1.2265990        1.1222785      -0.59072698E-01   0.36532717E-02
  6562.9924        1.2027482        1.0972158        1.2032943        1.0977619      -0.59080945E-01   0.51265288E-02
  6563.3623        1.1813041        1.0766007        1.1818717        1.0771683      -0.55187804E-01   0.10322410E-01
  6563.7104        1.1631233        1.0595175        1.1637113        1.0601055      -0.51669434E-01   0.96602218E-02
  6564.0296        1.1468246        1.0457080        1.1474313        1.0463146      -0.48741461E-01   0.13358545E-01
  6564.3379        1.1325390        1.0339421        1.1331636        1.0345667      -0.43287214E-01   0.25170963E-01
  6564.6571        1.1196600        1.0232814        1.1203032        1.0239246      -0.32945575E-01   0.31078414E-01
  6565.0127        1.1103082        1.0130954        1.1109722        1.0137593      -0.22316370E-01   0.22852271E-01
  6565.4118        1.1028185        1.0035944        1.1035056        1.0042815      -0.15699629E-01   0.13759264E-01
  6565.8146        1.0977182       0.99586585        1.0984287       0.99657639      -0.11282335E-01   0.99957665E-02
  6566.2138        1.0937696       0.98982978        1.0945033       0.99056349      -0.76826539E-02   0.10234938E-01
  6566.6095        1.0916114       0.98522744        1.0923680       0.98598407      -0.31467773E-02   0.10185994E-01
  6566.9761        1.0913708       0.98200289        1.0921487       0.98278075       0.82210783E-04   0.12177585E-01
  6567.3283        1.0916705       0.97968684        1.0924687       0.98048506       0.56068724E-02   0.16938740E-01
  6567.6478        1.0951370       0.97812033        1.0959537       0.97893701       0.11460132E-01   0.12210899E-01
  6567.9601        1.0989114       0.97697001        1.0997461       0.97780472       0.13322183E-01   0.54388498E-02
  6568.2797        1.1035554       0.97607266        1.1044085       0.97692579       0.14896958E-01   0.56937314E-02
  6568.6321        1.1089210       0.97527825        1.1097944       0.97615168       0.17147926E-01   0.26402022E-02
  6569.0317        1.1164491       0.97445787        1.1173455       0.97535429       0.16882160E-01  -0.15962794E-02
  6569.4349        1.1224751       0.97365847        1.1233947       0.97457806       0.15866331E-01   0.36744776E-03
  6569.8383        1.1292469       0.97288693        1.1301896       0.97382968       0.17178543E-01  -0.14190283E-03
  6570.2344        1.1362082       0.97215613        1.1371737       0.97312159       0.15752889E-01  -0.48125972E-02
  6570.6051        1.1413266       0.97149609        1.1423133       0.97248279       0.13488119E-01  -0.44711097E-02
  6570.9577        1.1459642       0.97088956        1.1469710       0.97189642       0.12518930E-01  -0.26283216E-02
  6571.2812        1.1497910       0.97035101        1.1508163       0.97137637       0.11711042E-01  -0.74760460E-02
  6571.5902        1.1533723       0.96985257        1.1544153       0.97089558       0.77897931E-02  -0.15003867E-01
  6571.9102        1.1546908       0.96935276        1.1557520       0.97041402       0.22735944E-02  -0.12902126E-01
  6572.2629        1.1549017       0.96882078        1.1559831       0.96990214      -0.88949315E-03  -0.96026779E-02
  6572.6594        1.1540244       0.96824645        1.1551283       0.96935038      -0.49202325E-02  -0.10343881E-01
  6573.0631        1.1509648       0.96768681        1.1520916       0.96881370      -0.91662322E-02  -0.71288744E-02
  6573.4669        1.1466223       0.96715233        1.1477721       0.96830215      -0.10677055E-01  -0.53534005E-02
  6573.8598        1.1424581       0.96665615        1.1436302       0.96782826      -0.13431415E-01  -0.86657323E-02
  6574.2310        1.1363597       0.96620889        1.1375528       0.96740204      -0.17298342E-01  -0.91409823E-02
  6574.5840        1.1299317       0.96580259        1.1311448       0.96701571      -0.20050766E-01  -0.12651180E-01
  6574.9042        1.1228601       0.96544985        1.1240913       0.96668108      -0.25816002E-01  -0.13189282E-01
  6575.2173        1.1135823       0.96511957        1.1148312       0.96636849      -0.28403604E-01  -0.49270518E-02
  6575.5376        1.1048702       0.96479623        1.1061371       0.96606323      -0.28936644E-01  -0.92454524E-03
  6575.8835        1.0943047       0.96446361        1.0955912       0.96575011      -0.29019536E-01   0.32807337E-02
  6576.2840        1.0832107       0.96409953        1.0845197       0.96540859      -0.26487983E-01   0.18844725E-02
  6576.6882        1.0729891       0.96375479        1.0743209       0.96508658      -0.27503052E-01  -0.43544033E-02
  6577.0925        1.0609753       0.96343247        1.0623298       0.96478698      -0.30008392E-01  -0.45124384E-02
  6577.4858        1.0490530       0.96314010        1.0504296       0.96451669      -0.31102385E-01  -0.36957066E-02
  6577.8574        1.0371831       0.96288296        1.0385805       0.96428037      -0.32835467E-01  -0.46632332E-02
  6578.2145        1.0251283       0.96265304        1.0265457       0.96407045      -0.34500124E-01  -0.49343745E-02
  6578.5388        1.0136769       0.96245862        1.0151124       0.96389416      -0.36197439E-01  -0.37305014E-02
  6578.8485        1.0021777       0.96228556        1.0036306       0.96373841      -0.36865407E-01   0.38094988E-02
  6579.1692       0.99043475       0.96211924       0.99190549       0.96359000      -0.33795702E-01   0.10467143E-01
  6579.5191       0.97951374       0.96195253       0.98100399       0.96344281      -0.29845953E-01   0.81261027E-02
  6579.9201       0.96802381       0.96178016       0.96953640       0.96329277      -0.27693917E-01   0.22184863E-02
  6580.3284       0.95710089       0.96162482       0.95863620       0.96316015      -0.28050519E-01   0.26157491E-02
  6580.7332       0.94521717       0.96149063       0.94677497       0.96304846      -0.25567167E-01   0.55320051E-02
  6581.1307       0.93659037       0.96137772       0.93817024       0.96295760      -0.23612628E-01  -0.11752652E-02
  6581.5027       0.92704727       0.96128871       0.92864777       0.96288922      -0.26471532E-01  -0.26612048E-02
  6581.8565       0.91737672       0.96121879       0.91899681       0.96283889      -0.25544192E-01   0.18525966E-02
  6582.1811       0.90971600       0.96116708       0.91135405       0.96280514      -0.25214578E-01  -0.12908800E-02
  6582.4949       0.90127913       0.96112827       0.90293452       0.96278368      -0.26368320E-01   0.33176437E-02
  6582.8123       0.89307250       0.96110002       0.89474542       0.96277296      -0.23120505E-01   0.12866324E-01
  6583.1627       0.88584041       0.96108152       0.88753265       0.96277378      -0.17776833E-01   0.94334560E-02
  6583.5604       0.87977347       0.96107640       0.88148763       0.96279058      -0.16063242E-01   0.34863794E-02
  6583.9656       0.87294250       0.96108825       0.87467895       0.96282472      -0.14977458E-01   0.23985445E-02
  6584.3671       0.86769116       0.96111667       0.86944968       0.96287522      -0.14128336E-01   0.33436961E-02
  6584.7614       0.86169846       0.96116045       0.86347863       0.96294063      -0.12316378E-01   0.40874715E-02
  6585.1375       0.85820273       0.96121657       0.86000352       0.96301738      -0.10979385E-01   0.86999169E-03
  6585.4954       0.85363994       0.96128278       0.85546033       0.96310319      -0.11677832E-01  -0.10991728E-02
  6585.8205       0.85022770       0.96135354       0.85206587       0.96319174      -0.11730033E-01   0.36396992E-02
  6586.1309       0.84618535       0.96143043       0.84804050       0.96328559      -0.93647554E-02   0.75254004E-02
  6586.4487       0.84434407       0.96151838       0.84621657       0.96339090      -0.70020275E-02   0.52101672E-02
  6586.7958       0.84152992       0.96162495       0.84342135       0.96351640      -0.59006715E-02   0.36071860E-02
  6587.1941       0.83994616       0.96176052       0.84185929       0.96367366      -0.43135052E-02   0.43429721E-02
  6587.5997       0.83806239       0.96191288       0.83999759       0.96384810      -0.24094561E-02   0.34069206E-02
  6588.0053       0.83799140       0.96207937       0.83994865       0.96403664      -0.15495080E-02  -0.42062029E-03
  6588.4038       0.83681645       0.96225630       0.83879533       0.96423520      -0.27476701E-02   0.11081120E-02
  6588.7803       0.83586211       0.96243547       0.83786141       0.96443479      -0.69078660E-03   0.19731672E-02
  6589.1386       0.83630885       0.96261652       0.83832755       0.96463524      -0.12977494E-02  -0.14371691E-02
  6589.4677       0.83497008       0.96279168       0.83700658       0.96482820      -0.16786549E-02   0.59602946E-02
  6589.7785       0.83523466       0.96296477       0.83728796       0.96501809       0.25162968E-02   0.60478432E-02
  6590.1003       0.83656204       0.96315167       0.83863272       0.96522236       0.21475796E-02  -0.27344702E-02
  6590.4478       0.83667204       0.96336203       0.83876146       0.96545147       0.68611315E-03  -0.24042113E-03
  6590.8465       0.83707401       0.96361416       0.83918491       0.96572507       0.19681793E-02   0.12223677E-02
  6591.2526       0.83825606       0.96388243       0.84038880       0.96601519       0.16698906E-02  -0.77049850E-03
  6591.6587       0.83843035       0.96416202       0.84058492       0.96631660       0.13423550E-02   0.17090232E-02
  6592.0576       0.83933668       0.96444727       0.84151266       0.96662327       0.30456885E-02   0.37604765E-02
  6592.7823       0.84185240       0.96499162       0.84406720       0.96720643       0.55675174E-02   0.22727711E-02
  6594.1319       0.85088505       0.96608947       0.85317192       0.96837636       0.77599634E-02   0.10099314E-02
  6596.0580       0.86727133       0.96782609       0.86966052       0.97021530       0.88757003E-02   0.26687360E-03
  6597.7851       0.88330978       0.96952805       0.88579019       0.97200847       0.87349066E-02   0.17537079E-03
  6599.8856       0.90070529       0.97174585       0.90329596       0.97433655       0.95469541E-02   0.59217343E-03
  6601.8213       0.92184396       0.97389773       0.92453559       0.97658939       0.11125084E-01   0.74998292E-03
  6603.7345       0.94352509       0.97609170       0.94631589       0.97888252       0.12433595E-01   0.66402594E-03
  6605.4813       0.96735023       0.97812481       0.97023103       0.98100563       0.13555383E-01   0.31536380E-03
  6607.3996       0.99320710       0.98035962       0.99618615       0.98333869       0.13589439E-01  -0.40739544E-03
  6609.1499        1.0172047       0.98237288        1.0202729       0.98544105       0.12060803E-01  -0.10034209E-02
  6611.2413        1.0395411       0.98470976        1.0427150       0.98788373       0.97345967E-02  -0.14092017E-02
  6613.0212        1.0548901       0.98660882        1.0581535       0.98987224       0.66053861E-02  -0.17704462E-02
  6614.9212        1.0638482       0.98851598        1.0672065       0.99187431       0.32195581E-02  -0.15850501E-02
  6616.8991        1.0673752       0.99036240        1.0708316       0.99381888       0.45874098E-03  -0.13765194E-02
  6618.7823        1.0656194       0.99199261        1.0691687       0.99554193      -0.20953142E-02  -0.11993949E-02
  6620.5899        1.0596418       0.99344339        1.0632796       0.99708126      -0.39679930E-02  -0.83019972E-03
  6622.4820        1.0509392       0.99484605        1.0546691       0.99857602      -0.51667726E-02  -0.44576705E-03
  6624.2887        1.0405308       0.99607803        1.0443481       0.99989539      -0.56168073E-02   0.40946013E-04
  6626.3425        1.0292555       0.99735522        1.0331715        1.0012712      -0.50087006E-02   0.50416091E-03
  6628.1873        1.0210038       0.99839440        1.0250078        1.0023984      -0.36512786E-02   0.89389335E-03
  6630.0450        1.0157367       0.99934102        1.0198288        1.0034331      -0.16990739E-02   0.90315088E-03
  6632.0989        1.0143577        1.0002753        1.0185465        1.0044641      -0.11852712E-03   0.72060791E-03
  6633.9260        1.0152767        1.0010110        1.0195509        1.0052852       0.10976075E-02   0.47882859E-03
  6635.7986        1.0184186        1.0016753        1.0227797        1.0060365       0.16530012E-02   0.68081913E-04
  6637.6286        1.0213971        1.0022402        1.0258426        1.0066858       0.13496872E-02  -0.27486826E-03
  6639.5064        1.0234229        1.0027369        1.0279545        1.0072685       0.63385598E-03  -0.45339238E-03
  6641.5168        1.0238617        1.0031793        1.0284847        1.0078024      -0.41320031E-03  -0.46416232E-03
  6643.6202        1.0217230        1.0035482        1.0264410        1.0082662      -0.12756326E-02  -0.39383975E-03
  6645.3959        1.0189133        1.0037885        1.0237109        1.0085861      -0.19409437E-02  -0.24716185E-03
  6647.3267        1.0145289        1.0039795        1.0194124        1.0088630      -0.21917392E-02   0.20098008E-04
  6649.1074        1.0107786        1.0040942        1.0157407        1.0090564      -0.18663486E-02   0.16960872E-03
  6651.0398        1.0075990        1.0041555        1.0126460        1.0092025      -0.15619682E-02   0.13011330E-03
  6653.0172        1.0046716        1.0041542        1.0098047        1.0092873      -0.13576321E-02   0.13653074E-03
  6654.9657        1.0022691        1.0040937        1.0074863        1.0093110      -0.10259577E-02   0.18517250E-03
  6656.7367        1.0008555        1.0039911        1.0061488        1.0092844      -0.66888240E-03   0.11788128E-03
  6658.8685       0.99965856        1.0038118        1.0050426        1.0091959      -0.56589550E-03  -0.40854075E-04
  6660.6318       0.99865135        1.0036210        1.0041099        1.0090796      -0.82801012E-03  -0.27324932E-03
  6662.6011       0.99656793        1.0033663        1.0021091        1.0089075      -0.15858273E-02  -0.41241294E-03
  6664.3717       0.99272049        1.0031033       0.99833532        1.0087181      -0.23704015E-02  -0.36280801E-03
  6666.3366       0.98771331        1.0027773       0.99340931        1.0084733      -0.29410948E-02  -0.26699248E-03
  6668.2970       0.98117589        1.0024204       0.98695223        1.0081967      -0.34184196E-02  -0.12835000E-03
  6670.9757       0.97185506        1.0018889       0.97774012        1.0077740      -0.35365179E-02  -0.37085066E-04
  6673.6550       0.96222698        1.0013163       0.96821959        1.0073090      -0.36171240E-02   0.68393067E-04
  6676.0203       0.95360784        1.0007851       0.95969439        1.0068717      -0.31914971E-02   0.33798198E-03
  6678.8433       0.94566862        1.0001301       0.95186605        1.0063275      -0.18635812E-02   0.57889853E-03
  6681.6888       0.94304414       0.99945830       0.94935198        1.0057662       0.89988101E-04   0.72690954E-03
  6684.0875       0.94614053       0.99889229       0.95254038        1.0052922       0.19484378E-02   0.59806223E-03
  6686.7111       0.95282975       0.99828285       0.95932914        1.0047823       0.30936283E-02   0.35966578E-03
  6689.5546       0.96305374       0.99764454       0.96965969        1.0042505       0.39147705E-02   0.23222304E-03
  6691.9929       0.97350684       0.99711964       0.98020309        1.0038159       0.43201870E-02   0.30444300E-04
  6694.4069       0.98401662       0.99662010       0.99080129        1.0034048       0.40624956E-02  -0.11616295E-03
  6697.2635       0.99491840       0.99605411        1.0018064        1.0029422       0.37079450E-02  -0.16897907E-03
  6700.1114        1.0051687       0.99551622        1.0121584        1.0025060       0.30985500E-02  -0.30480084E-03
  6702.4950        1.0111287       0.99508568        1.0182024        1.0021595       0.21133590E-02  -0.33179168E-03
  6705.1693        1.0158578       0.99462337        1.0230247        1.0017903       0.14203934E-02  -0.21195774E-03
  6708.0286        1.0189886       0.99415256        1.0262538        1.0014178       0.94046774E-03  -0.14063095E-03
  6710.6191        1.0209831       0.99374633        1.0283362        1.0010994       0.65398008E-03  -0.10241496E-03
  6713.2409        1.0223973       0.99335419        1.0298382        1.0007951       0.40665065E-03  -0.68713638E-04
  6715.9302        1.0231429       0.99297120        1.0306726        1.0005009       0.28903480E-03  -0.30915185E-04
  6718.5461        1.0239307       0.99261669        1.0315456        1.0002316       0.24264197E-03  -0.46223721E-04
  6721.1423        1.0244076       0.99228182        1.0321059       0.99998020       0.48112008E-04  -0.10844858E-03
  6723.8229        1.0241846       0.99195315        1.0319679       0.99973652      -0.32962481E-03  -0.18070867E-03
  6726.4774        1.0226490       0.99164415        1.0305153       0.99951048      -0.91599025E-03  -0.23467961E-03
  6729.0604        1.0193871       0.99135858        1.0273329       0.99930450      -0.15587600E-02  -0.23568949E-03
  6731.7236        1.0144714       0.99107910        1.0224982       0.99910591      -0.21524659E-02  -0.21139831E-03
  6734.3989        1.0078962       0.99081300        1.0160030       0.99891985      -0.26873004E-02  -0.10620409E-03
  6736.9954        1.0003047       0.99056813        1.0084880       0.99875153      -0.27123469E-02   0.64048076E-04
  6739.6498       0.99365383       0.99033080        1.0019143       0.99859128      -0.23509874E-02   0.15249329E-03
  6742.5209       0.98731417       0.99008816       0.99565666       0.99843067      -0.18697384E-02   0.20799851E-03
  6745.1545       0.98336158       0.98987775       0.99177811       0.99829430      -0.12060297E-02   0.24207126E-03
  6747.7934       0.98095543       0.98967793       0.98944497       0.99816749      -0.59342810E-03   0.21748517E-03
  6750.6632       0.98009253       0.98947239       0.98866014       0.99804002      -0.79573635E-05   0.18861795E-03
  6753.3378       0.98091131       0.98929117       0.98955043       0.99793032       0.45234336E-03   0.10462866E-03
  6755.9567       0.98248702       0.98912273       0.99119500       0.99783073       0.54589541E-03  -0.11386504E-05
  6758.6527       0.98381273       0.98895798       0.99259040       0.99773567       0.44629145E-03  -0.53875284E-04
  6761.3554       0.98489641       0.98880095       0.99374270       0.99764726       0.25503934E-03  -0.76335093E-04
  6763.9754       0.98517021       0.98865585       0.99408186       0.99756751       0.39987083E-04  -0.93489780E-04
  6766.6593       0.98510849       0.98851381       0.99408589       0.99749123      -0.24082167E-03  -0.51346452E-04
  6769.3875       0.98386686       0.98837560       0.99290985       0.99741861      -0.23790613E-03  -0.16478176E-04
  6772.0261       0.98383169       0.98824717       0.99293694       0.99735244      -0.32925729E-03  -0.67329119E-04
  6774.8897       0.98205521       0.98811290       0.99122669       0.99728440      -0.60836669E-03  -0.10131542E-04
  6778.1794       0.98008827       0.98796417       0.98933414       0.99721005      -0.39159902E-03   0.84925152E-04
  6781.6556       0.97940570       0.98781209       0.98872819       0.99713461      -0.33773140E-04   0.83054010E-04
  6784.9544       0.97985946       0.98767132       0.98925279       0.99706467       0.17108998E-03   0.42651607E-04
  6788.2353       0.98053141       0.98753347       0.98999338       0.99699546       0.24686027E-03   0.26060276E-04
  6791.5239       0.98148122       0.98739623       0.99101017       0.99692520       0.34229411E-03   0.18143228E-04
  6794.8162       0.98278402       0.98725862       0.99237821       0.99685283       0.36625922E-03  -0.21627223E-04
  6798.3493       0.98398110       0.98711039       0.99364326       0.99677258       0.19467889E-03  -0.59552952E-04
  6801.6702       0.98411834       0.98697073       0.99384249       0.99669490      -0.41914687E-04  -0.49713508E-04
  6804.9790       0.98370321       0.98683142       0.99348728       0.99661551      -0.13490706E-03   0.77357219E-05
  6808.4845       0.98319903       0.98668388       0.99304456       0.99652944       0.10799500E-04   0.51487701E-04
  6811.9938       0.98377897       0.98653643       0.99368396       0.99644145       0.22626732E-03   0.36109019E-04
  6815.2996       0.98474106       0.98639796       0.99470017       0.99635709       0.25688456E-03   0.30890064E-05
  6818.5986       0.98547563       0.98626035       0.99548693       0.99627166       0.24666952E-03  -0.19853810E-04
  6821.9082       0.98637119       0.98612307       0.99643299       0.99618489       0.12567885E-03  -0.28840942E-04
  6825.2421       0.98631059       0.98598574       0.99642140       0.99609657       0.55063253E-04  -0.56235392E-05
  6828.7660       0.98674881       0.98584183       0.99690939       0.99600244       0.87113611E-04   0.10379772E-04
  6832.3033       0.98692571       0.98569887       0.99713416       0.99590735       0.12835678E-03   0.22414505E-04
  6835.8436       0.98765727       0.98555752       0.99791151       0.99581179       0.24575440E-03   0.14847483E-04
  6839.1992       0.98862040       0.98542534       0.99891611       0.99572107       0.23074278E-03  -0.17716143E-04
  6842.5386       0.98920209       0.98529571       0.99953719       0.99563083       0.12714435E-03  -0.28308513E-04
  6845.8826       0.98947016       0.98516800       0.99984281       0.99554068       0.41545072E-04  -0.28156392E-04
  6849.2553       0.98948114       0.98504152       0.99988977       0.99545017      -0.61973266E-04  -0.18840628E-04
  6852.8316       0.98903950       0.98491015       0.99948419       0.99535486      -0.89379090E-04   0.14373106E-04
  6856.2294       0.98885780       0.98478816       0.99933476       0.99526514       0.38265914E-04   0.60675126E-05
  6859.6199       0.98929926       0.98466938       0.99980648       0.99517662      -0.48191467E-04  -0.16152287E-04
  6863.2163       0.98852109       0.98454680       0.99905829       0.99508403      -0.74589323E-04   0.17237687E-04
  6866.6214       0.98877702       0.98443420       0.99934061       0.99499781       0.72498938E-04   0.17952966E-04
  6870.0159       0.98901405       0.98432549       0.99960200       0.99491346       0.47482931E-04  -0.68021454E-05
  6873.4129       0.98909950       0.98422042       0.99970990       0.99483084       0.26301991E-04  -0.29818199E-04
  6876.8398       0.98919353       0.98411841       0.99982460       0.99474950      -0.15599267E-03  -0.48428281E-04
  6880.4538       0.98800117       0.98401537       0.99865190       0.99466612      -0.31467747E-03  -0.21228301E-04
  6883.8835       0.98697702       0.98392212       0.99764438       0.99458949      -0.30551956E-03   0.10623163E-05
  6887.3025       0.98590876       0.98383373       0.99659073       0.99451572      -0.30740199E-03  -0.36383687E-05
  6890.9241       0.98481274       0.98374532       0.99550804       0.99444064      -0.33113568E-03  -0.16238086E-04
  6894.3398       0.98357847       0.98366706       0.99428432       0.99437292      -0.42167359E-03  -0.18246862E-04
  6897.7718       0.98192525       0.98359363       0.99263972       0.99430812      -0.45608470E-03   0.16927342E-04
  6901.1973       0.98045086       0.98352574       0.99117196       0.99424686      -0.30559370E-03   0.95226045E-05
  6904.6454       0.97982473       0.98346306       0.99055051       0.99418886      -0.39063030E-03  -0.24195356E-04
  6908.2909       0.97767988       0.98340317       0.98840844       0.99413176      -0.47722600E-03   0.10222949E-04
  6911.9450       0.97634114       0.98334997       0.98707025       0.99407910      -0.31600631E-03   0.27805460E-04
  6915.7889       0.97531046       0.98330165       0.98603771       0.99402892      -0.26874043E-03   0.28640281E-04
  6919.8484       0.97421718       0.98325942       0.98493977       0.99398204      -0.89650312E-04   0.51065344E-04
  6923.9194       0.97458156       0.98322649       0.98529671       0.99394165       0.14644379E-03   0.33034771E-04
  6927.9836       0.97540852       0.98320334       0.98611344       0.99390829       0.17909250E-03   0.16653684E-04
  6932.0625       0.97603994       0.98319003       0.98673181       0.99388192       0.28205679E-03   0.27454666E-04
  6936.1481       0.97771137       0.98318652       0.98838738       0.99386254       0.40324651E-03   0.25650171E-04
  6940.4328       0.97941521       0.98319322       0.99007155       0.99384958       0.49675524E-03   0.12348346E-04
  6944.7421       0.98198048       0.98321051       0.99261393       0.99384398       0.50936803E-03  -0.70192379E-05
  6948.8417       0.98369843       0.98323661       0.99430720       0.99384540       0.43773127E-03  -0.13140974E-04
  6952.9512       0.98557387       0.98327203       0.99615506       0.99385325       0.40149231E-03  -0.14295641E-04
  6957.0756       0.98700431       0.98331675       0.99755498       0.99386744       0.32002113E-03  -0.20431435E-04
  6961.2048       0.98821519       0.98337055       0.99873243       0.99388782       0.23285944E-03  -0.23304346E-04
  6965.3415       0.98892910       0.98343335       0.99940998       0.99391425       0.12739010E-03  -0.28760701E-04
  6969.4748       0.98926871       0.98350483       0.99971037       0.99394652      -0.49906364E-05  -0.26281774E-04
  6973.5999       0.98888789       0.98358470       0.99928756       0.99398439      -0.89655747E-04  -0.89671868E-05
  6977.7430       0.98852741       0.98367332       0.99888202       0.99402796      -0.79133534E-04   0.20472875E-05
  6981.8900       0.98823187       0.98377031       0.99853849       0.99407695      -0.72683680E-04  -0.67087658E-05
  6986.0346       0.98792474       0.98387534       0.99818051       0.99413113      -0.13476018E-03  -0.34307086E-05
  6990.1940       0.98711282       0.98398872       0.99731465       0.99419058      -0.10117229E-03   0.51086960E-05
  6994.3531       0.98708315       0.98410992       0.99722813       0.99425493      -0.92263793E-04  -0.11446071E-04
  6998.5149       0.98634510       0.98423885       0.99643029       0.99432406      -0.19641398E-03  -0.14352799E-04
  7002.6910       0.98544547       0.98437575       0.99546773       0.99439804      -0.21193590E-03   0.76101853E-05
  7006.8665       0.98457510       0.98452000       0.99453152       0.99447644      -0.13285689E-03   0.65295169E-05
  7011.0430       0.98433585       0.98467149       0.99422347       0.99455913      -0.15740138E-03   0.29803853E-05
  7015.2289       0.98325885       0.98483036       0.99307457       0.99464610      -0.10793372E-03   0.18652954E-04
  7019.4208       0.98343160       0.98499636       0.99317237       0.99473715      -0.11303424E-05   0.18843522E-04
  7023.6146       0.98324937       0.98516918       0.99291220       0.99483202       0.50083442E-04   0.12701846E-04
  7027.8086       0.98385169       0.98534856       0.99343361       0.99493051       0.10541083E-03   0.10036913E-04
  7031.9941       0.98413265       0.98553396       0.99363089       0.99503221       0.13418737E-03   0.96147357E-05
  7036.1893       0.98497627       0.98572599       0.99438766       0.99513741       0.18598887E-03   0.63187710E-06
  7040.3877       0.98569378       0.98592423       0.99501530       0.99524577       0.13949111E-03   0.32356642E-05
  7044.5900       0.98614810       0.98612854       0.99537670       0.99535716       0.21317075E-03   0.12889159E-04
  7049.0150       0.98753287       0.98634985       0.99666041       0.99547742       0.25069000E-03  -0.13759693E-04
  7053.4231       0.98836247       0.98657642       0.99738607       0.99560004       0.91629885E-04  -0.27467602E-04
  7057.6329       0.98832252       0.98679829       0.99724381       0.99571960       0.13978301E-04  -0.10420158E-04
  7061.8614       0.98848042       0.98702637       0.99729593       0.99584191       0.37023941E-05  -0.80430264E-05
  7066.0841       0.98835381       0.98725920       0.99706069       0.99596610      -0.53995422E-04  -0.81128035E-05
  7070.3075       0.98802437       0.98749693       0.99661961       0.99609219      -0.64819577E-04  -0.60566377E-05
  7074.5277       0.98780650       0.98773916       0.99628718       0.99621986      -0.10513489E-03  -0.10117156E-04
  7078.9552       0.98711519       0.98799814       0.99547247       0.99635544      -0.15230961E-03  -0.23065911E-05
  7083.6144       0.98642251       0.98827580       0.99464636       0.99649968      -0.12609428E-03   0.11881031E-04
  7088.4897       0.98591295       0.98857173       0.99399329       0.99665209      -0.39030200E-04   0.15616867E-04
  7093.3561       0.98604228       0.98887233       0.99397538       0.99680545       0.26040487E-04   0.10627470E-04
  7098.2500       0.98616711       0.98917973       0.99394812       0.99696075       0.64697587E-04   0.73633577E-05
  7103.1522       0.98667607       0.98949266       0.99430069       0.99711730       0.98172719E-04   0.69546690E-05
  7107.8474       0.98710932       0.98979700       0.99458036       0.99726807       0.13144429E-03   0.45648619E-05
  7112.5573       0.98791231       0.99010674       0.99522558       0.99742004       0.14110557E-03   0.89185792E-05
  7117.4984       0.98847112       0.99043640       0.99561486       0.99758016       0.21751721E-03   0.16312070E-04
  7122.4162       0.99005680       0.99076920       0.99702773       0.99774015       0.30192494E-03   0.31775919E-06
  7127.3451       0.99144409       0.99110734       0.99823774       0.99790101       0.22064609E-03  -0.15923966E-04
  7132.2774       0.99223262       0.99145023       0.99884478       0.99806241       0.14489627E-03  -0.74844304E-05
  7136.9924       0.99284194       0.99178214       0.99927678       0.99821700       0.14844182E-03  -0.21345742E-05
  7141.9478       0.99366812       0.99213524       0.99991256       0.99837971       0.12425402E-03  -0.54036015E-05
  7146.9417       0.99407819       0.99249540        1.0001266       0.99854382       0.94679432E-04  -0.44211994E-06
  7151.7026       0.99459169       0.99284269        1.0004493       0.99870030       0.11994124E-03   0.73043194E-06
  7156.4527       0.99521894       0.99319294        1.0008824       0.99885639       0.10162653E-03   0.13572143E-05
  7161.4185       0.99557909       0.99356301        1.0010355       0.99901941       0.13312777E-03   0.71949831E-06
  7166.3937       0.99654237       0.99393769        1.0017871       0.99918249       0.10877907E-03  -0.14545477E-04
  7171.3602       0.99666054       0.99431552        1.0016899       0.99934494      -0.11480116E-04  -0.10944826E-04
  7176.3528       0.99642804       0.99469905        1.0012368       0.99950779      -0.22142325E-06   0.31818598E-05
  7181.3468       0.99665833       0.99508635        1.0012421       0.99967014       0.20295867E-04  -0.31625230E-06
  7186.3527       0.99663099       0.99547812        1.0009851       0.99983222      -0.33839156E-05  -0.40765424E-06
  7191.1604       0.99662512       0.99585763        1.0007546       0.99998717       0.16295328E-04  -0.25081977E-07
  7195.9624       0.99678759       0.99623980        1.0006889        1.0001412      -0.36249476E-05  -0.37419748E-05
  7200.9948       0.99658947       0.99664351        1.0002475        1.0003016      -0.20504928E-04   0.35817569E-05
  7206.0362       0.99658103       0.99705115       0.99999108        1.0004612       0.32456762E-04   0.10365447E-04
  7211.0757       0.99691667       0.99746175        1.0000746        1.0006197       0.83987778E-04   0.36906597E-05
  7216.1582       0.99743115       0.99787888        1.0003304        1.0007781       0.69813745E-04  -0.75562141E-05
  7221.0229       0.99761111       0.99828090        1.0002587        1.0009285       0.88250514E-05  -0.14242087E-05
  7225.9032       0.99751715       0.99868682       0.99990832        1.0010780       0.55934878E-04   0.77758868E-05
  7231.0224       0.99817044       0.99911534        1.0002883        1.0012332       0.86580443E-04   0.13626826E-05
  7236.1295       0.99840255       0.99954550        1.0002434        1.0013864       0.69870109E-04  -0.21491557E-05
  7241.0485       0.99887096       0.99996223        1.0004408        1.0015321       0.65032759E-04  -0.22421687E-05
  7246.1661       0.99905526        1.0003982        1.0003389        1.0016818       0.47366417E-04   0.67809859E-06
  7251.3017       0.99935662        1.0008381        1.0003486        1.0018300       0.71985397E-04   0.59729776E-05
  7256.2300       0.99977971        1.0012623        1.0004876        1.0019702       0.10747778E-03   0.40608106E-05
  7261.1661        1.0004168        1.0016892        1.0008361        1.0021085       0.11204286E-03   0.23034543E-06
  7266.3384        1.0009123        1.0021386        1.0010247        1.0022510       0.10980621E-03   0.45161765E-06
  7271.4986        1.0015514        1.0025888        1.0013532        1.0023907       0.11670922E-03   0.57701144E-05
  7276.6886        1.0021203        1.0030436        1.0016052        1.0025285       0.16952833E-03   0.42742704E-05
  7282.0784        1.0033450        1.0035177        1.0024960        1.0026687       0.16193000E-03  -0.59181169E-05
  7287.4821        1.0038680        1.0039948        1.0026794        1.0028062       0.10565141E-03  -0.53416715E-05
  7292.9250        1.0044909        1.0044770        1.0029552        1.0029413       0.10399087E-03  -0.20504898E-06
  7298.6030        1.0050245        1.0049819        1.0031214        1.0030788       0.10337107E-03   0.64348528E-06
  7304.2647        1.0056631        1.0054871        1.0033883        1.0032123       0.11128780E-03  -0.71832958E-06
  7309.6951        1.0062589        1.0059732        1.0036225        1.0033368       0.95403288E-04  -0.33384942E-05
  7315.1616        1.0067027        1.0064641        1.0036972        1.0034586       0.74908444E-04   0.14348997E-06
  7320.8843        1.0070971        1.0069796        1.0036999        1.0035824       0.97008822E-04   0.37495991E-05
  7326.5917        1.0078115        1.0074952        1.0040182        1.0037019       0.11776643E-03   0.12601792E-05
  7332.2679        1.0084377        1.0080095        1.0042450        1.0038168       0.11135418E-03   0.68001879E-08
  7337.9929        1.0090811        1.0085296        1.0044801        1.0039286       0.11784396E-03  -0.40126332E-06
  7343.5012        1.0097615        1.0090314        1.0047623        1.0040322       0.10684668E-03  -0.31195227E-05
  7349.0077        1.0102580        1.0095342        1.0048558        1.0041320       0.83482794E-04  -0.34058436E-05
  7354.7322        1.0106991        1.0100581        1.0048725        1.0042316       0.68595631E-04  -0.29233943E-05
  7360.4636        1.0110438        1.0105839        1.0047868        1.0043269       0.49992875E-04   0.14888744E-05
  7365.9978        1.0112623        1.0110927        1.0045844        1.0044148       0.85368699E-04   0.36611607E-05
  7371.5495        1.0119902        1.0116041        1.0048849        1.0044989       0.90580176E-04  -0.97590873E-06
  7377.3225        1.0122881        1.0121370        1.0047329        1.0045818       0.74316809E-04  -0.94370090E-06
  7383.0816        1.0128473        1.0126695        1.0048376        1.0046599       0.79697311E-04  -0.18695651E-05
  7388.6404        1.0131901        1.0131844        1.0047366        1.0047309       0.53157309E-04   0.53741046E-07
  7394.2241        1.0134396        1.0137024        1.0045349        1.0047978       0.80296121E-04   0.51142894E-05
  7400.0320        1.0141048        1.0142420        1.0047253        1.0048626       0.11141737E-03   0.37523251E-05
  7405.8344        1.0147332        1.0147819        1.0048737        1.0049224       0.12386157E-03   0.32028292E-06
  7411.4218        1.0155155        1.0153024        1.0051885        1.0049754       0.11506532E-03  -0.77292415E-06
  7417.2787        1.0160500        1.0158486        1.0052272        1.0050259       0.11501595E-03  -0.67306112E-06
  7423.1250        1.0168616        1.0163944        1.0055382        1.0050711       0.10718837E-03  -0.21177421E-05
  7428.7379        1.0172783        1.0169190        1.0054688        1.0051096       0.90748312E-04  -0.22132856E-05
  7434.5777        1.0179009        1.0174652        1.0055801        1.0051444       0.81840252E-04  -0.14468264E-05
  7440.4682        1.0182383        1.0180165        1.0053960        1.0051742       0.73776704E-04   0.15573758E-05
  7446.1450        1.0187543        1.0185481        1.0054038        1.0051977       0.99854915E-04   0.19802151E-05
  7451.8052        1.0193704        1.0190785        1.0055078        1.0052159       0.96226478E-04  -0.16016493E-05
  7457.7012        1.0198663        1.0196311        1.0054646        1.0052294       0.81345959E-04  -0.23211919E-05
  7463.6239        1.0203318        1.0201864        1.0053826        1.0052373       0.68793056E-04   0.19524292E-05
  7469.3446        1.0206673        1.0207228        1.0051838        1.0052393       0.10407888E-03   0.88331391E-06
  7475.0664        1.0215227        1.0212594        1.0054991        1.0052358       0.78900431E-04  -0.48053840E-05
  7481.0056        1.0215874        1.0218162        1.0049975        1.0052264       0.48043133E-04   0.15586801E-05
  7486.9647        1.0220943        1.0223749        1.0049302        1.0052108       0.97445952E-04   0.31270838E-05
  7492.7321        1.0227301        1.0229154        1.0050046        1.0051899       0.84712925E-04  -0.26279843E-05
  7498.4725        1.0230692        1.0234531        1.0047794        1.0051633       0.67203563E-04   0.11203472E-06
  7504.4447        1.0235172        1.0240123        1.0046344        1.0051295       0.86025140E-04   0.95751505E-06
  7510.6361        1.0241156        1.0245916        1.0046116        1.0050877       0.78850425E-04   0.10167241E-05
  7516.8852        1.0244981        1.0251759        1.0043608        1.0050385       0.98673674E-04   0.10359689E-05
  7523.1461        1.0253500        1.0257610        1.0045714        1.0049825       0.91810401E-04  -0.55032371E-06
  7529.6021        1.0256657        1.0263643        1.0042190        1.0049176       0.91675224E-04   0.15643164E-05
  7535.8928        1.0265185        1.0269522        1.0044141        1.0048478       0.11175015E-03   0.40099513E-05
  7541.9490        1.0270454        1.0275183        1.0043015        1.0047744       0.14118537E-03   0.39950034E-05
  7548.4599        1.0282928        1.0281273        1.0048545        1.0046890       0.16195602E-03  -0.22800697E-05
  7554.7493        1.0291185        1.0287161        1.0050027        1.0046002       0.11199963E-03  -0.27282456E-05
  7560.8413        1.0296795        1.0292870        1.0049011        1.0045085       0.12817665E-03  -0.36719416E-07
  7567.3974        1.0307397        1.0299022        1.0052412        1.0044037       0.11153520E-03  -0.30753087E-05
  7573.9139        1.0311376        1.0305148        1.0049162        1.0042934       0.87974266E-04  -0.78226386E-06
  7580.2516        1.0318705        1.0311116        1.0049392        1.0041803       0.10147986E-03  -0.36894257E-05
  7586.5474        1.0324196        1.0317058        1.0047764        1.0040626       0.41363807E-04  -0.42801100E-05
  7592.8156        1.0323902        1.0322988        1.0040316        1.0039402       0.47704576E-04   0.31589575E-05
  7599.1414        1.0330204        1.0328988        1.0039331        1.0038115       0.81147671E-04   0.12255378E-05
  7605.5267        1.0334217        1.0335062        1.0035921        1.0036766       0.63282587E-04   0.21239180E-06
  7612.0761        1.0338390        1.0341311        1.0032408        1.0035330       0.83894887E-04   0.36624452E-05
  7618.6684        1.0345242        1.0347624        1.0031452        1.0033834       0.11141333E-03   0.20454676E-05
  7625.0730        1.0352870        1.0353779        1.0031423        1.0032333       0.11047958E-03   0.74431536E-06
  7631.4436        1.0359356        1.0359926        1.0030226        1.0030796       0.12092205E-03  -0.18291666E-05
  7637.8107        1.0368273        1.0366095        1.0031394        1.0029217       0.87180179E-04  -0.68872251E-05
  7644.2574        1.0370527        1.0372369        1.0025734        1.0027576       0.32670260E-04  -0.13824870E-05
  7650.9323        1.0372559        1.0378895        1.0019498        1.0025834       0.69039736E-04   0.72278333E-05
  7657.5740        1.0379721        1.0385421        1.0018358        1.0024059       0.12892074E-03   0.48409731E-05
  7664.0662        1.0389492        1.0391834        1.0019943        1.0022285       0.13262069E-03  -0.21963296E-05
  7670.5697        1.0396956        1.0398293        1.0019136        1.0020473       0.10037790E-03  -0.13889732E-05
  7677.0403        1.0402515        1.0404755        1.0016394        1.0018635       0.11460005E-03  -0.55133980E-06
  7683.5593        1.0411842        1.0411304        1.0017288        1.0016750       0.93216240E-04  -0.14829037E-05
  7690.1302        1.0414717        1.0417945        1.0011589        1.0014818       0.95189003E-04   0.32823839E-05
  7696.6361        1.0424290        1.0424562        1.0012603        1.0012875       0.13613927E-03  -0.10488530E-05
  7703.1608        1.0432457        1.0431242        1.0012113        1.0010898       0.81521769E-04  -0.20547614E-05
  7709.7664        1.0434994        1.0438050        1.0005814        1.0008870       0.10915950E-03   0.46400819E-05
  7716.3424        1.0446846        1.0444875        1.0008796        1.0006826       0.14268539E-03  -0.11801806E-05
  7723.1084        1.0454031        1.0451948        1.0006780        1.0004698       0.93413628E-04  -0.21384616E-05
  7729.7351        1.0459356        1.0458929        1.0003018        1.0002591       0.11404552E-03   0.24362964E-05
  7736.0984        1.0468846        1.0465682        1.0003712        1.0000549       0.12506130E-03  -0.12987714E-05
  7742.9595        1.0475895        1.0473020        1.0001202       0.99983272       0.96870039E-04  -0.23452605E-05
  7749.6200        1.0481944        1.0480202       0.99978954       0.99961534       0.93349725E-04   0.16871424E-05
  7756.0622        1.0488126        1.0487205       0.99949575       0.99940363       0.11897603E-03   0.23301457E-05
  7763.0173        1.0497884        1.0494829       0.99947903       0.99917363       0.12456744E-03  -0.18848198E-05
  7769.9846        1.0505469        1.0502535       0.99923521       0.99894180       0.92734664E-04  -0.11410986E-05
  7776.7774        1.0510644        1.0510109       0.99876760       0.99871415       0.10886581E-03   0.42524786E-06
  7783.7785        1.0520486        1.0517977       0.99872834       0.99847750       0.98600480E-04  -0.24233320E-05
  7790.7782        1.0524449        1.0525902       0.99809318       0.99823855       0.74937220E-04   0.11530402E-05
  7797.8657        1.0531042        1.0533984       0.99769972       0.99799387       0.11484362E-03   0.38202913E-05
  7805.1328        1.0540934        1.0542325       0.99760065       0.99773980       0.12977593E-03   0.11712977E-05
  7812.2133        1.0549662        1.0550504       0.99740458       0.99748878       0.13164882E-03  -0.59167839E-06
  7819.0622        1.0559272        1.0558459       0.99732367       0.99724241       0.12153423E-03  -0.86827486E-06
  7826.1086        1.0566550        1.0566687       0.99697123       0.99698495       0.11958384E-03  -0.18173141E-05
  7833.2456        1.0576233        1.0575060       0.99683698       0.99671973       0.95758393E-04   0.98798649E-06
  7840.1215        1.0579968        1.0583163       0.99614013       0.99645966       0.13342835E-03   0.36532037E-05
  7847.2107        1.0594866        1.0591551       0.99651808       0.99618651       0.14677562E-03  -0.31910443E-05
  7854.3870        1.0600906        1.0600072       0.99598792       0.99590449       0.87906496E-04  -0.32682348E-05
  7861.5664        1.0607486        1.0608624       0.99550257       0.99561644       0.99857727E-04   0.20859753E-05
  7868.6843        1.0615183        1.0617128       0.99513023       0.99532469       0.11773032E-03   0.32502203E-05
  7875.6552        1.0624073        1.0625475       0.99489244       0.99503267       0.14564917E-03  -0.51989651E-06
  7882.8651        1.0635838        1.0634126       0.99489493       0.99472376       0.11035775E-03  -0.31242782E-05
  7890.0527        1.0639962        1.0642763       0.99412829       0.99440849       0.10066711E-03   0.32194988E-05
  7897.3333        1.0650402        1.0651523       0.99396921       0.99408135       0.15693806E-03   0.14156114E-05
  7904.5755        1.0662753        1.0660244       0.99399867       0.99374777       0.12122569E-03  -0.50354626E-05
  7911.8706        1.0668025        1.0669032       0.99330247       0.99340318       0.83735917E-04  -0.56851940E-06
  7919.2006        1.0675000        1.0677862       0.99276169       0.99304789       0.11291102E-03   0.12405169E-05
  7926.4610        1.0684499        1.0686603       0.99247625       0.99268668       0.10183559E-03  -0.37581463E-06
  7933.7845        1.0689851        1.0695414       0.99175635       0.99231259       0.10743019E-03   0.27141293E-05
  7940.8660        1.0699975        1.0703922       0.99154646       0.99194121       0.14093262E-03   0.16089148E-05
  7948.1507        1.0710098        1.0712660       0.99129272       0.99154891       0.13054414E-03  -0.12355738E-05
  7955.5159        1.0719099        1.0721475       0.99090369       0.99114133       0.12283164E-03  -0.36721533E-06
  7962.6301        1.0727883        1.0729969       0.99052823       0.99073684       0.12522708E-03   0.15444447E-05
  7969.9671        1.0737196        1.0738703       0.99015744       0.99030820       0.14515079E-03   0.63160661E-06
  7977.3798        1.0749293        1.0747498       0.99004241       0.98986292       0.13454311E-03  -0.12263454E-05
  7984.7999        1.0757153        1.0756266       0.98949314       0.98940453       0.12696075E-03  -0.34381812E-06
  7992.1575        1.0768055        1.0764923       0.98925018       0.98893708       0.12946227E-03   0.66419096E-06
  7999.5974        1.0776310        1.0773635       0.98871837       0.98845096       0.13678916E-03   0.42474483E-06
  8007.0240        1.0788390        1.0782286       0.98856225       0.98795184       0.13577670E-03  -0.86077363E-06
  8014.4141        1.0796427        1.0790845       0.98799927       0.98744104       0.12403539E-03  -0.11375363E-05
  8021.8993        1.0806841        1.0799460       0.98764699       0.98690888       0.11885544E-03   0.89893368E-07
  8029.3379        1.0814165        1.0807963       0.98698511       0.98636493       0.12537695E-03   0.86682591E-07
  8036.7698        1.0825485        1.0816397       0.98671478       0.98580603       0.12014445E-03  -0.26066615E-05
  8044.0115        1.0831795        1.0824553       0.98597036       0.98524623       0.87127883E-04  -0.45592268E-05
